Date			25.10.2024 11.07.21
Id			sweepZ_map 33/Nf
Index			0
Xpos			51.951
Ypos			60.22
Points			1602
Passes			2
Hname			Z
Vname			Nf
Hunits			nm
Vunits			a.u.

97			-3773.19
96.875			-3772.76
96.75			-3773.21
96.625			-3770.74
96.5			-3772.52
96.375			-3772.81
96.25			-3773.02
96.125			-3769.9
96			-3768.95
95.875			-3768.62
95.75			-3768.64
95.625			-3768.62
95.5			-3766.57
95.375			-3765.67
95.25			-3766.19
95.125			-3765.43
95			-3765.71
94.875			-3764.26
94.75			-3766.07
94.625			-3764.52
94.5			-3765.6
94.375			-3766.4
94.25			-3769.33
94.125			-3766.83
94			-3765.98
93.875			-3764.52
93.75			-3763.76
93.625			-3766
93.5			-3763.1
93.375			-3762.81
93.25			-3761.69
93.125			-3760.88
93			-3761.38
92.875			-3763.07
92.75			-3762.24
92.625			-3762.93
92.5			-3762.76
92.375			-3761.93
92.25			-3760.69
92.125			-3759.31
92			-3760.36
91.875			-3760.57
91.75			-3758.1
91.625			-3758.33
91.5			-3758.86
91.375			-3760.76
91.25			-3757.83
91.125			-3758.17
91			-3757.38
90.875			-3757.19
90.75			-3757.29
90.625			-3754.83
90.5			-3757.52
90.375			-3758.31
90.25			-3755.81
90.125			-3755.17
90			-3753.71
89.875			-3754.1
89.75			-3753.67
89.625			-3753.62
89.5			-3752.86
89.375			-3752.81
89.25			-3751.33
89.125			-3751.33
89			-3750.95
88.875			-3753.17
88.75			-3755.12
88.625			-3754.36
88.5			-3754.02
88.375			-3754.45
88.25			-3751.9
88.125			-3753.67
88			-3752.95
87.875			-3753.79
87.75			-3753.43
87.625			-3751.48
87.5			-3749.55
87.375			-3748.69
87.25			-3750.31
87.125			-3750.62
87			-3749.93
86.875			-3750
86.75			-3748.93
86.625			-3748.48
86.5			-3749.57
86.375			-3750.83
86.25			-3751.07
86.125			-3750.5
86			-3749.83
85.875			-3749.5
85.75			-3748.43
85.625			-3750.55
85.5			-3749.76
85.375			-3751.62
85.25			-3749.45
85.125			-3747.76
85			-3748.98
84.875			-3749.62
84.75			-3746.98
84.625			-3744.95
84.5			-3745.81
84.375			-3746.62
84.25			-3746.07
84.125			-3744.93
84			-3746.36
83.875			-3746.14
83.75			-3746.43
83.625			-3745.55
83.5			-3744.93
83.375			-3743.98
83.25			-3744.36
83.125			-3745.29
83			-3744.14
82.875			-3746.05
82.75			-3744.74
82.625			-3742.24
82.5			-3741.64
82.375			-3743.71
82.25			-3741.31
82.125			-3744.5
82			-3743.21
81.875			-3743.05
81.75			-3745.12
81.625			-3745.48
81.5			-3745.07
81.375			-3745.07
81.25			-3747.1
81.125			-3745.62
81			-3743
80.875			-3744.52
80.75			-3744.52
80.625			-3742.64
80.5			-3741.6
80.375			-3742.36
80.25			-3742.14
80.125			-3740.98
80			-3741.57
79.875			-3740.9
79.75			-3741.69
79.625			-3742.74
79.5			-3741.1
79.375			-3742.76
79.25			-3744.55
79.125			-3743.98
79			-3742.31
78.875			-3741.86
78.75			-3742.14
78.625			-3740.19
78.5			-3741.45
78.375			-3742.31
78.25			-3743.88
78.125			-3743.17
78			-3743.79
77.875			-3744.12
77.75			-3741.69
77.625			-3742.38
77.5			-3741.98
77.375			-3741.9
77.25			-3742.67
77.125			-3742.64
77			-3741.24
76.875			-3740.76
76.75			-3740.07
76.625			-3741.95
76.5			-3741.36
76.375			-3740.57
76.25			-3741.43
76.125			-3740.5
76			-3739.31
75.875			-3739.79
75.75			-3738.69
75.625			-3738.57
75.5			-3739.67
75.375			-3737.9
75.25			-3737.48
75.125			-3737.17
75			-3735.88
74.875			-3736.93
74.75			-3736.5
74.625			-3738.57
74.5			-3738
74.375			-3736.26
74.25			-3736.07
74.125			-3736.6
74			-3736.62
73.875			-3736.9
73.75			-3736.71
73.625			-3738.4
73.5			-3737.29
73.375			-3738.33
73.25			-3737.57
73.125			-3736.02
73			-3736.12
72.875			-3736.05
72.75			-3736.79
72.625			-3737.05
72.5			-3735.21
72.375			-3736.29
72.25			-3736.33
72.125			-3736.57
72			-3737.76
71.875			-3736.12
71.75			-3735.36
71.625			-3734.9
71.5			-3733.83
71.375			-3733.6
71.25			-3733.95
71.125			-3731.55
71			-3731.95
70.875			-3732
70.75			-3732.45
70.625			-3732.29
70.5			-3731.55
70.375			-3734.1
70.25			-3733.88
70.125			-3734.5
70			-3734.6
69.875			-3732.76
69.75			-3733.6
69.625			-3735.17
69.5			-3732.19
69.375			-3732.9
69.25			-3733.67
69.125			-3735
69			-3732.98
68.875			-3732.19
68.75			-3732.24
68.625			-3734.1
68.5			-3732.21
68.375			-3735.4
68.25			-3734.9
68.125			-3736.48
68			-3737.83
67.875			-3739.86
67.75			-3740.98
67.625			-3743.98
67.5			-3744.67
67.375			-3743.36
67.25			-3744.43
67.125			-3747.14
67			-3753.62
66.875			-3754.62
66.75			-3756.12
66.625			-3755.81
66.5			-3757.14
66.375			-3759.81
66.25			-3759.02
66.125			-3762.52
66			-3764.6
65.875			-3764.69
65.75			-3766.14
65.625			-3765.38
65.5			-3768.33
65.375			-3768.79
65.25			-3770.71
65.125			-3774.45
65			-3775.71
64.875			-3775.57
64.75			-3777.12
64.625			-3779.33
64.5			-3780.67
64.375			-3780.86
64.25			-3783.83
64.125			-3782.76
64			-3790.6
63.875			-3796.33
63.75			-3798.31
63.625			-3799.52
63.5			-3799.38
63.375			-3798.19
63.25			-3802.86
63.125			-3804.33
63			-3815.81
62.875			-3816.29
62.75			-3823.88
62.625			-3839.05
62.5			-3857.88
62.375			-3865.14
62.25			-3869.02
62.125			-3884.17
62			-3888.48
61.875			-3891.88
61.75			-3896.17
61.625			-3900.48
61.5			-3903.76
61.375			-3908.6
61.25			-3917.24
61.125			-3922.86
61			-3935.12
60.875			-3943.88
60.75			-3949.79
60.625			-3963.1
60.5			-3968.93
60.375			-3973.29
60.25			-3977.07
60.125			-3987.1
60			-3994.21
59.875			-4014.24
59.75			-4031.6
59.625			-4040.21
59.5			-4046.05
59.375			-4053.12
59.25			-4063.57
59.125			-4071.71
59			-4078.26
58.875			-4082
58.75			-4085.86
58.625			-4088.95
58.5			-4095.31
58.375			-4097.43
58.25			-4102.95
58.125			-4106.21
58			-4118.05
57.875			-4125.05
57.75			-4138.33
57.625			-4143.38
57.5			-4146.76
57.375			-4151.79
57.25			-4157.36
57.125			-4161.81
57			-4166.4
56.875			-4180.33
56.75			-4184.76
56.625			-4189
56.5			-4193.19
56.375			-4196.93
56.25			-4203.62
56.125			-4207.86
56			-4210.07
55.875			-4216.05
55.75			-4226.14
55.625			-4230.69
55.5			-4235.1
55.375			-4238.5
55.25			-4240.38
55.125			-4246.52
55			-4249.83
54.875			-4254.67
54.75			-4267.14
54.625			-4272.67
54.5			-4275.33
54.375			-4280.26
54.25			-4283.79
54.125			-4285.36
54			-4286.71
53.875			-4288.55
53.75			-4291.93
53.625			-4294.5
53.5			-4296.05
53.375			-4298.24
53.25			-4300.43
53.125			-4302.74
53			-4307.45
52.875			-4324.95
52.75			-4323.93
52.625			-4326.95
52.5			-4328.17
52.375			-4331.02
52.25			-4332.57
52.125			-4334.95
52			-4336.67
51.875			-4338.12
51.75			-4337.21
51.625			-4339.6
51.5			-4347.64
51.375			-4354.88
51.25			-4357.14
51.125			-4359.31
51			-4363.4
50.875			-4380.24
50.75			-4386.1
50.625			-4396.57
50.5			-4398.33
50.375			-4396.86
50.25			-4399.71
50.125			-4399.24
50			-4396.38
49.875			-4397.33
49.75			-4398.83
49.625			-4398.31
49.5			-4397.62
49.375			-4398.45
49.25			-4400.9
49.125			-4399.29
49			-4397.95
48.875			-4396.55
48.75			-4394.29
48.625			-4390.9
48.5			-4389.43
48.375			-4386.95
48.25			-4386.69
48.125			-4385.33
48			-4384.29
47.875			-4382.5
47.75			-4381.1
47.625			-4379
47.5			-4374.88
47.375			-4371.69
47.25			-4370.83
47.125			-4367.81
47			-4364.07
46.875			-4364.57
46.75			-4360.21
46.625			-4358.19
46.5			-4353.83
46.375			-4353.62
46.25			-4352.55
46.125			-4357
46			-4356.79
45.875			-4351.45
45.75			-4348.71
45.625			-4345.95
45.5			-4342.57
45.375			-4338.98
45.25			-4335.93
45.125			-4330.9
45			-4342.43
44.875			-4338.57
44.75			-4335.93
44.625			-4329.93
44.5			-4326.5
44.375			-4321.95
44.25			-4319.07
44.125			-4314.07
44			-4311.1
43.875			-4305.9
43.75			-4301.26
43.625			-4297.95
43.5			-4292.07
43.375			-4288.76
43.25			-4284.19
43.125			-4278.21
43			-4272.86
42.875			-4264.45
42.75			-4261.33
42.625			-4257.83
42.5			-4248.76
42.375			-4242.95
42.25			-4237.21
42.125			-4230.55
42			-4221.86
41.875			-4217.19
41.75			-4210.93
41.625			-4221.64
41.5			-4218.64
41.375			-4212.24
41.25			-4204.86
41.125			-4199.88
41			-4194.95
40.875			-4188.43
40.75			-4182.79
40.625			-4176.57
40.5			-4169.4
40.375			-4163
40.25			-4152.64
40.125			-4146.36
40			-4139.76
39.875			-4133.19
39.75			-4125.29
39.625			-4118.36
39.5			-4108.26
39.375			-4105.55
39.25			-4095.24
39.125			-4085.57
39			-4078.57
38.875			-4072.67
38.75			-4061.64
38.625			-4054.52
38.5			-4046.64
38.375			-4038.52
38.25			-4031.57
38.125			-4023.31
38			-4013.64
37.875			-4003.07
37.75			-4002.86
37.625			-3998.9
37.5			-3990.83
37.375			-3985.9
37.25			-3976.71
37.125			-3968.19
37			-3959.71
36.875			-3949.69
36.75			-3941.21
36.625			-3931.88
36.5			-3921.93
36.375			-3914.19
36.25			-3905.5
36.125			-3898.45
36			-3887.83
35.875			-3879.74
35.75			-3872.24
35.625			-3861.1
35.5			-3849.88
35.375			-3843.02
35.25			-3834.88
35.125			-3827.52
35			-3815.19
34.875			-3804.48
34.75			-3794.95
34.625			-3785.4
34.5			-3776.83
34.375			-3767.88
34.25			-3755.14
34.125			-3743.19
34			-3735
33.875			-3726.62
33.75			-3716.95
33.625			-3705.02
33.5			-3695.48
33.375			-3685.02
33.25			-3677.02
33.125			-3667.6
33			-3658.31
32.875			-3646.43
32.75			-3635.57
32.625			-3629.1
32.5			-3619.45
32.375			-3609.93
32.25			-3599.17
32.125			-3587.4
32			-3578.5
31.875			-3567.88
31.75			-3559.43
31.625			-3547.36
31.5			-3533.79
31.375			-3520.67
31.25			-3511.6
31.125			-3502.79
31			-3496
30.875			-3484.26
30.75			-3475.83
30.625			-3463.79
30.5			-3452.29
30.375			-3439.95
30.25			-3430.81
30.125			-3420.57
30			-3409.9
29.875			-3400.38
29.75			-3389.02
29.625			-3377.48
29.5			-3365.31
29.375			-3354.4
29.25			-3344.57
29.125			-3332.83
29			-3320.79
28.875			-3312.33
28.75			-3301.79
28.625			-3289.48
28.5			-3279.57
28.375			-3268.88
28.25			-3258.17
28.125			-3245.43
28			-3234.45
27.875			-3223.88
27.75			-3215.74
27.625			-3204.12
27.5			-3194.4
27.375			-3184.52
27.25			-3169.88
27.125			-3160.76
27			-3151.93
26.875			-3139.57
26.75			-3129.71
26.625			-3115.19
26.5			-3103.74
26.375			-3094.81
26.25			-3086.19
26.125			-3075.95
26			-3065.52
25.875			-3053.38
25.75			-3043.31
25.625			-3034.86
25.5			-3030.17
25.375			-3018.12
25.25			-3008
25.125			-2997.26
25			-2982.93
24.875			-2972.6
24.75			-2963.98
24.625			-2953.14
24.5			-2942.17
24.375			-2932.05
24.25			-2923.93
24.125			-2912.43
24			-2903.98
23.875			-2892.55
23.75			-2881.26
23.625			-2870.24
23.5			-2859.81
23.375			-2851.17
23.25			-2842.17
23.125			-2829.45
23			-2818.24
22.875			-2807.02
22.75			-2798.17
22.625			-2788.98
22.5			-2775.55
22.375			-2764.88
22.25			-2756.9
22.125			-2746.71
22			-2737.02
21.875			-2726.07
21.75			-2718.12
21.625			-2708.26
21.5			-2696.48
21.375			-2684.64
21.25			-2677.07
21.125			-2667.76
21			-2657.31
20.875			-2647.95
20.75			-2641.07
20.625			-2627.9
20.5			-2618.38
20.375			-2605.02
20.25			-2596.74
20.125			-2584.62
20			-2579.45
19.875			-2567.57
19.75			-2558.86
19.625			-2549.95
19.5			-2541.69
19.375			-2530.52
19.25			-2521.31
19.125			-2510.62
19			-2499.26
18.875			-2487.95
18.75			-2476.64
18.625			-2464.26
18.5			-2456.67
18.375			-2445.6
18.25			-2438.69
18.125			-2429.33
18			-2422.69
17.875			-2410.4
17.75			-2400.86
17.625			-2394.52
17.5			-2382.33
17.375			-2370.9
17.25			-2365.48
17.125			-2355.48
17			-2347.38
16.875			-2334.93
16.75			-2324.52
16.625			-2315.1
16.5			-2305.6
16.375			-2294.79
16.25			-2280.83
16.125			-2272.74
16			-2264.5
15.875			-2255.88
15.75			-2246.64
15.625			-2237
15.5			-2226
15.375			-2215.14
15.25			-2203.12
15.125			-2192.62
15			-2181.21
14.875			-2170.83
14.75			-2160.83
14.625			-2153.62
14.5			-2140.45
14.375			-2128.31
14.25			-2115.62
14.125			-2104.57
14			-2096.05
13.875			-2084.71
13.75			-2076.05
13.625			-2064.81
13.5			-2055.33
13.375			-2043.17
13.25			-2033.67
13.125			-2019.36
13			-2009.93
12.875			-2000.38
12.75			-1984.31
12.625			-1972.93
12.5			-1960.81
12.375			-1953.33
12.25			-1935.69
12.125			-1922.45
12			-1915.55
11.875			-1905.31
11.75			-1894.43
11.625			-1880.12
11.5			-1868.9
11.375			-1855.71
11.25			-1846.64
11.125			-1835.57
11			-1825.24
10.875			-1808.21
10.75			-1795.88
10.625			-1782.02
10.5			-1774.26
10.375			-1757.98
10.25			-1747.67
10.125			-1732.1
10			-1723.31
9.875			-1708.93
9.75			-1701.67
9.625			-1684.98
9.5			-1673.43
9.375			-1658.67
9.25			-1646.12
9.125			-1631.07
9			-1614.79
8.875			-1599.71
8.75			-1584.38
8.625			-1572.81
8.5			-1558.02
8.375			-1539.52
8.25			-1524.64
8.125			-1513.12
8			-1495.69
7.875			-1480.81
7.75			-1464.9
7.625			-1451
7.5			-1434.21
7.375			-1415.55
7.25			-1398.6
7.125			-1382.64
7			-1364.69
6.875			-1349
6.75			-1328.79
6.625			-1313.05
6.5			-1291.95
6.375			-1275.26
6.25			-1258.29
6.125			-1240.86
6			-1216.5
5.875			-1201.1
5.75			-1182.4
5.625			-1164.1
5.5			-1139.17
5.375			-1116.69
5.25			-1094.83
5.125			-1074.24
5			-1051.83
4.875			-1028.76
4.75			-1003.48
4.625			-977.786
4.5			-951.548
4.375			-928.405
4.25			-904.024
4.125			-880.595
4			-854.214
3.875			-826.762
3.75			-800.214
3.625			-772.762
3.5			-745.143
3.375			-716.405
3.25			-687.357
3.125			-657.286
3			-626.333
2.875			-598.381
2.75			-567.286
2.625			-532.595
2.5			-496.429
2.375			-460.929
2.25			-432.69
2.125			-395.238
2			-361.31
1.875			-324.762
1.75			-300.429
1.625			-263.19
1.5			-233.262
1.375			-192.024
1.25			-160.5
1.125			-124.143
1			-91.6905
0.875			-53.9762
0.75			-19.7619
0.625			22.381
0.5			54.5
0.375			92.8333
0.25			127.19
0.125			172.095
0			207.357
-0.125			247.976
-0.25			281.333
-0.375			322.238
-0.5			361.5
-0.625			401.452
-0.75			436.714
-0.875			477.214
-1			518.976
-1.125			559.071
-1.25			600
-1.375			639.429
-1.5			675.476
-1.625			717.929
-1.75			759.952
-1.875			804.81
-2			842.452
-2.125			881.048
-2.25			921.286
-2.375			964.738
-2.5			1004.14
-2.625			1042.1
-2.75			1085.1
-2.875			1127.9
-3			1173.31
-3			1189
-2.875			1146.14
-2.75			1105.83
-2.625			1063.71
-2.5			1022.67
-2.375			981.905
-2.25			940.071
-2.125			894.5
-2			847.786
-1.875			806.524
-1.75			763.81
-1.625			720.881
-1.5			673.381
-1.375			626.881
-1.25			583.071
-1.125			544.357
-1			500.857
-0.875			456.452
-0.75			411.476
-0.625			363.952
-0.5			320.048
-0.375			278.143
-0.25			237.429
-0.125			190.762
0			146.643
0.125			105.381
0.25			61.6429
0.375			21.8333
0.5			-23.5238
0.625			-66
0.75			-114.429
0.875			-157.881
1			-202.5
1.125			-245.619
1.25			-289.024
1.375			-334.476
1.5			-378.31
1.625			-420.69
1.75			-462.881
1.875			-505.952
2			-553.452
2.125			-598.595
2.25			-641.857
2.375			-685
2.5			-730.238
2.625			-770.714
2.75			-817.833
2.875			-855.048
3			-901.738
3.125			-945.833
3.25			-987.524
3.375			-1029.98
3.5			-1077
3.625			-1119.24
3.75			-1165.67
3.875			-1207.05
4			-1251.07
4.125			-1292.69
4.25			-1333.1
4.375			-1374.83
4.5			-1417.17
4.625			-1457.05
4.75			-1502.52
4.875			-1538.83
5			-1584.07
5.125			-1619.55
5.25			-1660.74
5.375			-1698.69
5.5			-1743.05
5.625			-1779.76
5.75			-1819.98
5.875			-1855.36
6			-1893.12
6.125			-1933.69
6.25			-1971.95
6.375			-2005.81
6.5			-2040.95
6.625			-2079.6
6.75			-2111.71
6.875			-2147.71
7			-2184.31
7.125			-2217.67
7.25			-2250
7.375			-2282.6
7.5			-2313.71
7.625			-2342.83
7.75			-2373.69
7.875			-2401.57
8			-2432.95
8.125			-2461.55
8.25			-2494.31
8.375			-2518.86
8.5			-2542.67
8.625			-2566.19
8.75			-2591.6
8.875			-2615.33
9			-2638.86
9.125			-2666.14
9.25			-2685.36
9.375			-2710.98
9.5			-2729.21
9.625			-2750.45
9.75			-2769.86
9.875			-2792.02
10			-2811.67
10.125			-2827.71
10.25			-2846.69
10.375			-2867.4
10.5			-2886.43
10.625			-2904.48
10.75			-2918.86
10.875			-2935.55
11			-2952.38
11.125			-2965.74
11.25			-2983.62
11.375			-2996.67
11.5			-3011.02
11.625			-3029
11.75			-3044.55
11.875			-3059.1
12			-3072.17
12.125			-3086.64
12.25			-3100.52
12.375			-3115.1
12.5			-3125.33
12.625			-3138.57
12.75			-3146.05
12.875			-3157.12
13			-3171.12
13.125			-3187.14
13.25			-3200.67
13.375			-3209.36
13.5			-3217.86
13.625			-3231.38
13.75			-3242.74
13.875			-3253.6
14			-3263.02
14.125			-3275.93
14.25			-3282.83
14.375			-3290.67
14.5			-3306.14
14.625			-3317.38
14.75			-3327.55
14.875			-3339.02
15			-3346.62
15.125			-3351
15.25			-3361.62
15.375			-3376.19
15.5			-3385.48
15.625			-3392.19
15.75			-3395.33
15.875			-3407.4
16			-3418.81
16.125			-3429.38
16.25			-3435.17
16.375			-3440.88
16.5			-3447
16.625			-3449.83
16.75			-3459.12
16.875			-3464.5
17			-3470.93
17.125			-3474.6
17.25			-3478
17.375			-3485.93
17.5			-3489.52
17.625			-3498.38
17.75			-3499.62
17.875			-3508.55
18			-3517.33
18.125			-3522.86
18.25			-3526.38
18.375			-3529.17
18.5			-3532.81
18.625			-3539.64
18.75			-3546.95
18.875			-3549.6
19			-3556.55
19.125			-3562.26
19.25			-3566.02
19.375			-3571.67
19.5			-3580.36
19.625			-3584.29
19.75			-3587.36
19.875			-3590.33
20			-3596.93
20.125			-3603.19
20.25			-3608.95
20.375			-3615.52
20.5			-3620.55
20.625			-3625.29
20.75			-3632.17
20.875			-3633.48
21			-3640.26
21.125			-3643.05
21.25			-3648.33
21.375			-3657.71
21.5			-3660.74
21.625			-3662.79
21.75			-3668.88
21.875			-3670.24
22			-3674
22.125			-3682.86
22.25			-3686.05
22.375			-3689.12
22.5			-3694.33
22.625			-3696.93
22.75			-3700.4
22.875			-3703.5
23			-3713.12
23.125			-3719.29
23.25			-3726.98
23.375			-3730.52
23.5			-3735.38
23.625			-3742.83
23.75			-3750.33
23.875			-3753.17
24			-3755.45
24.125			-3763.64
24.25			-3767.48
24.375			-3775.9
24.5			-3781.6
24.625			-3782.52
24.75			-3787.29
24.875			-3793.48
25			-3798.48
25.125			-3804.76
25.25			-3809.9
25.375			-3812.57
25.5			-3819.17
25.625			-3826.95
25.75			-3833.52
25.875			-3834.43
26			-3841.02
26.125			-3844.29
26.25			-3849.57
26.375			-3859.07
26.5			-3864.38
26.625			-3871.24
26.75			-3874.55
26.875			-3880.81
27			-3887.81
27.125			-3896.12
27.25			-3901.43
27.375			-3902.62
27.5			-3912.02
27.625			-3916.74
27.75			-3922.5
27.875			-3927.45
28			-3931.67
28.125			-3936.76
28.25			-3941.69
28.375			-3949.81
28.5			-3957.5
28.625			-3965.98
28.75			-3970.02
28.875			-3976.38
29			-3981.1
29.125			-3987.55
29.25			-3993.81
29.375			-4002.17
29.5			-4009.12
29.625			-4013.24
29.75			-4021.67
29.875			-4026.38
30			-4030.24
30.125			-4037.14
30.25			-4043.14
30.375			-4050.17
30.5			-4055.79
30.625			-4060.95
30.75			-4067.38
30.875			-4071.95
31			-4077.07
31.125			-4086.69
31.25			-4090.69
31.375			-4097.45
31.5			-4103.26
31.625			-4109.5
31.75			-4115.19
31.875			-4122.83
32			-4126.74
32.125			-4134.5
32.25			-4141.48
32.375			-4149.45
32.5			-4156.76
32.625			-4163.24
32.75			-4169.83
32.875			-4178.6
33			-4185.52
33.125			-4194.67
33.25			-4201.88
33.375			-4208.52
33.5			-4214.83
33.625			-4219.52
33.75			-4227.9
33.875			-4235.38
34			-4243.14
34.125			-4253.64
34.25			-4260.02
34.375			-4264.95
34.5			-4272.74
34.625			-4279.21
34.75			-4286.05
34.875			-4293.19
35			-4303.31
35.125			-4307.4
35.25			-4317.38
35.375			-4323.02
35.5			-4330.24
35.625			-4336.9
35.75			-4346.24
35.875			-4350.67
36			-4358.9
36.125			-4365.67
36.25			-4375.67
36.375			-4379.6
36.5			-4388.1
36.625			-4395.6
36.75			-4405.38
36.875			-4411.88
37			-4419.1
37.125			-4422.71
37.25			-4430.57
37.375			-4439.52
37.5			-4446.62
37.625			-4452.19
37.75			-4460.88
37.875			-4466.38
38			-4474.21
38.125			-4479.17
38.25			-4487.14
38.375			-4494.57
38.5			-4498.52
38.625			-4505.62
38.75			-4515.38
38.875			-4520.98
39			-4530.81
39.125			-4533.86
39.25			-4540.69
39.375			-4549.48
39.5			-4556.43
39.625			-4563.07
39.75			-4568.52
39.875			-4572.48
40			-4577.17
40.125			-4583.69
40.25			-4590.74
40.375			-4596.19
40.5			-4599.38
40.625			-4604.02
40.75			-4610.05
40.875			-4616.43
41			-4621.31
41.125			-4627.33
41.25			-4632.5
41.375			-4637.45
41.5			-4641.76
41.625			-4644.5
41.75			-4652.26
41.875			-4655.29
42			-4660.21
42.125			-4666.21
42.25			-4670.74
42.375			-4674.5
42.5			-4679.29
42.625			-4683.26
42.75			-4687.64
42.875			-4690.76
43			-4694.12
43.125			-4699.95
43.25			-4702.45
43.375			-4707.19
43.5			-4709.98
43.625			-4714.29
43.75			-4718.64
43.875			-4722.24
44			-4728.21
44.125			-4729.48
44.25			-4731.02
44.375			-4732.62
44.5			-4738.14
44.625			-4740.79
44.75			-4744.57
44.875			-4746.62
45			-4746.98
45.125			-4752.67
45.25			-4755.45
45.375			-4757.5
45.5			-4758.17
45.625			-4761.14
45.75			-4765.19
45.875			-4765.19
46			-4767.14
46.125			-4767.45
46.25			-4771.29
46.375			-4771.4
46.5			-4775.6
46.625			-4776.48
46.75			-4778.74
46.875			-4778.86
47			-4779.86
47.125			-4781.5
47.25			-4779.98
47.375			-4779.4
47.5			-4778.64
47.625			-4779.31
47.75			-4779.21
47.875			-4780.79
48			-4779.98
48.125			-4779.93
48.25			-4779.21
48.375			-4781.21
48.5			-4780.45
48.625			-4779.81
48.75			-4779.74
48.875			-4779.45
49			-4778.93
49.125			-4778.36
49.25			-4777.45
49.375			-4776.93
49.5			-4778.48
49.625			-4775.88
49.75			-4772.93
49.875			-4770.71
50			-4769.83
50.125			-4765.17
50.25			-4764.31
50.375			-4762.81
50.5			-4761.02
50.625			-4756.17
50.75			-4753.71
50.875			-4753.81
51			-4750.05
51.125			-4749.55
51.25			-4746.81
51.375			-4745.33
51.5			-4738.74
51.625			-4735.57
51.75			-4731.55
51.875			-4729.36
52			-4724.07
52.125			-4720.12
52.25			-4714.69
52.375			-4712.02
52.5			-4707.98
52.625			-4704.57
52.75			-4698.64
52.875			-4695.12
53			-4688.95
53.125			-4680.9
53.25			-4673.95
53.375			-4668.79
53.5			-4662.36
53.625			-4655.98
53.75			-4649.64
53.875			-4642.74
54			-4634.6
54.125			-4628.19
54.25			-4622.52
54.375			-4616.45
54.5			-4610.24
54.625			-4605.48
54.75			-4598.33
54.875			-4594.4
55			-4587.57
55.125			-4582.24
55.25			-4574.6
55.375			-4566.5
55.5			-4560.14
55.625			-4549.29
55.75			-4544.26
55.875			-4537.05
56			-4530.19
56.125			-4521.76
56.25			-4514.6
56.375			-4507.31
56.5			-4500.83
56.625			-4492.79
56.75			-4484.57
56.875			-4475.26
57			-4467.6
57.125			-4459.55
57.25			-4454.19
57.375			-4445.12
57.5			-4438.45
57.625			-4428.57
57.75			-4419.79
57.875			-4411.95
58			-4404.4
58.125			-4394.83
58.25			-4386.79
58.375			-4379.14
58.5			-4366.38
58.625			-4358.69
58.75			-4347.12
58.875			-4337.98
59			-4327.64
59.125			-4315.76
59.25			-4303.86
59.375			-4295.79
59.5			-4286.38
59.625			-4277.79
59.75			-4267.38
59.875			-4255.83
60			-4246.17
60.125			-4235.93
60.25			-4226.62
60.375			-4219.29
60.5			-4208
60.625			-4199
60.75			-4188.83
60.875			-4178.98
61			-4165.29
61.125			-4152.71
61.25			-4141.62
61.375			-4132.69
61.5			-4124.81
61.625			-4115.55
61.75			-4104
61.875			-4094.67
62			-4084.29
62.125			-4074.69
62.25			-4064.62
62.375			-4055.07
62.5			-4046.98
62.625			-4038.07
62.75			-4027.67
62.875			-4018.38
63			-4008.98
63.125			-4001.88
63.25			-3992.88
63.375			-3985.21
63.5			-3976.29
63.625			-3964
63.75			-3955.24
63.875			-3947.12
64			-3937.67
64.125			-3925.12
64.25			-3917.76
64.375			-3911.88
64.5			-3901.88
64.625			-3892.21
64.75			-3880.29
64.875			-3874.57
65			-3869.17
65.125			-3863.74
65.25			-3858.29
65.375			-3850.48
65.5			-3838.95
65.625			-3828
65.75			-3822.43
65.875			-3821.55
66			-3817.71
66.125			-3815.17
66.25			-3810.52
66.375			-3806.83
66.5			-3800.74
66.625			-3796.45
66.75			-3795.12
66.875			-3792.98
67			-3789.71
67.125			-3784.29
67.25			-3782.17
67.375			-3779
67.5			-3772
67.625			-3767.38
67.75			-3761.33
67.875			-3759.43
68			-3753.67
68.125			-3743.57
68.25			-3732.88
68.375			-3728.26
68.5			-3725.07
68.625			-3723.9
68.75			-3722
68.875			-3719.74
69			-3720.93
69.125			-3723.48
69.25			-3723.38
69.375			-3723.55
69.5			-3721.17
69.625			-3720.55
69.75			-3721.14
69.875			-3721.02
70			-3720.24
70.125			-3719.67
70.25			-3720.81
70.375			-3720.93
70.5			-3720.79
70.625			-3721.95
70.75			-3722.02
70.875			-3720.81
71			-3723.17
71.125			-3724.95
71.25			-3726.48
71.375			-3724.81
71.5			-3723.07
71.625			-3721.57
71.75			-3722.21
71.875			-3724.69
72			-3723.93
72.125			-3722.81
72.25			-3724.1
72.375			-3720.6
72.5			-3720.71
72.625			-3721.79
72.75			-3721.71
72.875			-3721.74
73			-3723.6
73.125			-3721.95
73.25			-3721.05
73.375			-3719.5
73.5			-3721.02
73.625			-3720.24
73.75			-3722.12
73.875			-3720.67
74			-3719.62
74.125			-3718.45
74.25			-3719.71
74.375			-3722.5
74.5			-3721.5
74.625			-3722.31
74.75			-3721.67
74.875			-3722.26
75			-3722.81
75.125			-3721.48
75.25			-3721.81
75.375			-3721.19
75.5			-3723.21
75.625			-3723.5
75.75			-3723.14
75.875			-3723.48
76			-3723.55
76.125			-3725.31
76.25			-3723.24
76.375			-3723.38
76.5			-3725.21
76.625			-3724.83
76.75			-3723.29
76.875			-3723.02
77			-3722.5
77.125			-3723.86
77.25			-3722.88
77.375			-3725.02
77.5			-3723.98
77.625			-3723.43
77.75			-3721.71
77.875			-3722.14
78			-3724.31
78.125			-3725.5
78.25			-3725.43
78.375			-3725.1
78.5			-3725.38
78.625			-3724.29
78.75			-3724.4
78.875			-3724.19
79			-3724.62
79.125			-3724.33
79.25			-3723.45
79.375			-3724.43
79.5			-3725.86
79.625			-3724.74
79.75			-3726.14
79.875			-3726.29
80			-3727.02
80.125			-3725.6
80.25			-3726.43
80.375			-3725.26
80.5			-3724.88
80.625			-3725.24
80.75			-3725.67
80.875			-3724.43
81			-3725.6
81.125			-3725.1
81.25			-3725.52
81.375			-3725.26
81.5			-3725.05
81.625			-3724.86
81.75			-3724.4
81.875			-3723.67
82			-3725.26
82.125			-3724.67
82.25			-3725.69
82.375			-3724.29
82.5			-3723.36
82.625			-3725.24
82.75			-3726.83
82.875			-3725.86
83			-3727.12
83.125			-3727.9
83.25			-3728.55
83.375			-3726.95
83.5			-3726.57
83.625			-3724.76
83.75			-3725.33
83.875			-3726.55
84			-3725.74
84.125			-3723.86
84.25			-3724.62
84.375			-3725.52
84.5			-3726.98
84.625			-3725.76
84.75			-3726.12
84.875			-3725.64
85			-3726.79
85.125			-3726.64
85.25			-3727.38
85.375			-3728
85.5			-3728.07
85.625			-3729.79
85.75			-3729.4
85.875			-3730.83
86			-3729.76
86.125			-3732.86
86.25			-3731
86.375			-3731.17
86.5			-3731.76
86.625			-3729.95
86.75			-3728.43
86.875			-3730.9
87			-3731.05
87.125			-3729.52
87.25			-3730.79
87.375			-3730.19
87.5			-3728.76
87.625			-3730.1
87.75			-3729.83
87.875			-3729.5
88			-3728.98
88.125			-3725.9
88.25			-3728.05
88.375			-3729.21
88.5			-3727.69
88.625			-3729.17
88.75			-3731.64
88.875			-3732
89			-3731.64
89.125			-3730.76
89.25			-3731.48
89.375			-3730.48
89.5			-3731.69
89.625			-3731.88
89.75			-3731.62
89.875			-3730.74
90			-3729.69
90.125			-3731.19
90.25			-3729.81
90.375			-3729.62
90.5			-3730.69
90.625			-3731.17
90.75			-3731.76
90.875			-3732.21
91			-3732
91.125			-3731.57
91.25			-3732.38
91.375			-3732.64
91.5			-3732.95
91.625			-3733.55
91.75			-3732.29
91.875			-3731.19
92			-3731.24
92.125			-3733.24
92.25			-3731.07
92.375			-3730.1
92.5			-3731.43
92.625			-3731.64
92.75			-3731.4
92.875			-3731.76
93			-3731.36
93.125			-3730.05
93.25			-3729.62
93.375			-3731.21
93.5			-3732.07
93.625			-3731.17
93.75			-3728.9
93.875			-3731.55
94			-3730.55
94.125			-3731.43
94.25			-3732.4
94.375			-3730.69
94.5			-3731.1
94.625			-3731.9
94.75			-3730.76
94.875			-3732.6
95			-3732.71
95.125			-3732.19
95.25			-3731.71
95.375			-3731.76
95.5			-3731.48
95.625			-3732.88
95.75			-3732.9
95.875			-3733.4
96			-3733.14
96.125			-3732.57
96.25			-3732.67
96.375			-3733.79
96.5			-3732.67
96.625			-3733.83
96.75			-3733
96.875			-3732.4
97			-3730.88
