Date			25.10.2024 11.07.21
Id			sweepZ_map 33/Nf
Index			0
Xpos			51.951
Ypos			60.22
Points			1602
Passes			2
Hname			Z
Vname			Nf
Hunits			nm
Vunits			a.u.

97			-3767.78
96.875			-3767.44
96.75			-3768.19
96.625			-3770.11
96.5			-3770.56
96.375			-3769.56
96.25			-3768.11
96.125			-3769.69
96			-3769.5
95.875			-3768.83
95.75			-3768.81
95.625			-3770.31
95.5			-3769.97
95.375			-3768.58
95.25			-3767.92
95.125			-3767.89
95			-3768.31
94.875			-3769.14
94.75			-3769.36
94.625			-3770.78
94.5			-3771.33
94.375			-3773.81
94.25			-3773.78
94.125			-3773.28
94			-3773.06
93.875			-3774.14
93.75			-3774.33
93.625			-3773.69
93.5			-3771.75
93.375			-3771.61
93.25			-3774.19
93.125			-3776.44
93			-3774.06
92.875			-3774.92
92.75			-3774.61
92.625			-3774.47
92.5			-3774.56
92.375			-3774.17
92.25			-3773.36
92.125			-3773.08
92			-3772.14
91.875			-3772.75
91.75			-3774.75
91.625			-3775.17
91.5			-3775.28
91.375			-3775.22
91.25			-3774.44
91.125			-3774.86
91			-3775.44
90.875			-3776.44
90.75			-3777.83
90.625			-3776.75
90.5			-3774.53
90.375			-3772.67
90.25			-3772.22
90.125			-3776.42
90			-3774.94
89.875			-3775.64
89.75			-3776.22
89.625			-3776.28
89.5			-3778.28
89.375			-3779.22
89.25			-3777.53
89.125			-3777.03
89			-3778.61
88.875			-3778.5
88.75			-3777.89
88.625			-3779.58
88.5			-3779.58
88.375			-3779.86
88.25			-3780.19
88.125			-3779.89
88			-3779.47
87.875			-3777.53
87.75			-3778.33
87.625			-3778.78
87.5			-3777.53
87.375			-3779.25
87.25			-3779.28
87.125			-3780.53
87			-3781.06
86.875			-3781.78
86.75			-3781.94
86.625			-3780.36
86.5			-3778.22
86.375			-3779.06
86.25			-3779.56
86.125			-3779.94
86			-3778.69
85.875			-3777.39
85.75			-3777.44
85.625			-3778.61
85.5			-3780.19
85.375			-3780.83
85.25			-3779.75
85.125			-3777.94
85			-3775.28
84.875			-3777.25
84.75			-3778.08
84.625			-3777.17
84.5			-3777.39
84.375			-3777.97
84.25			-3780.83
84.125			-3782.22
84			-3782
83.875			-3781.11
83.75			-3781.28
83.625			-3780.25
83.5			-3781.56
83.375			-3781.28
83.25			-3780.39
83.125			-3779.11
83			-3779.89
82.875			-3779.39
82.75			-3781.83
82.625			-3784.11
82.5			-3781.64
82.375			-3779.33
82.25			-3780.92
82.125			-3780.25
82			-3780.94
81.875			-3781.83
81.75			-3782.61
81.625			-3781.31
81.5			-3782.28
81.375			-3782.36
81.25			-3781.97
81.125			-3781.53
81			-3781.89
80.875			-3784.67
80.75			-3786.86
80.625			-3785.92
80.5			-3786.11
80.375			-3785.97
80.25			-3787.22
80.125			-3786.47
80			-3786.31
79.875			-3785.92
79.75			-3785.75
79.625			-3784.86
79.5			-3784.69
79.375			-3784.47
79.25			-3785.47
79.125			-3785.06
79			-3784.39
78.875			-3784.39
78.75			-3785.14
78.625			-3785.36
78.5			-3786.25
78.375			-3787.11
78.25			-3787.25
78.125			-3786.33
78			-3785.44
77.875			-3785.33
77.75			-3786.94
77.625			-3785.61
77.5			-3789.14
77.375			-3788
77.25			-3786.08
77.125			-3786.28
77			-3786.78
76.875			-3787.67
76.75			-3787
76.625			-3788.14
76.5			-3789.31
76.375			-3788.83
76.25			-3788.58
76.125			-3787.11
76			-3788.97
75.875			-3787.92
75.75			-3787.92
75.625			-3789.78
75.5			-3789.53
75.375			-3790.33
75.25			-3792.03
75.125			-3791.14
75			-3790.33
74.875			-3790.33
74.75			-3791.25
74.625			-3790.83
74.5			-3789.86
74.375			-3791.47
74.25			-3793.36
74.125			-3792.56
74			-3792.97
73.875			-3793.5
73.75			-3792.78
73.625			-3793.53
73.5			-3792.47
73.375			-3792.53
73.25			-3792.97
73.125			-3791.19
73			-3792.78
72.875			-3793.5
72.75			-3791.78
72.625			-3794.03
72.5			-3793.97
72.375			-3793.81
72.25			-3793.78
72.125			-3795.17
72			-3796.14
71.875			-3795.97
71.75			-3796.78
71.625			-3795.69
71.5			-3796.53
71.375			-3797.06
71.25			-3797.03
71.125			-3796.42
71			-3796.89
70.875			-3797.17
70.75			-3798.72
70.625			-3798.22
70.5			-3804.5
70.375			-3812.47
70.25			-3818.58
70.125			-3820.56
70			-3819.64
69.875			-3820.44
69.75			-3820.33
69.625			-3826.83
69.5			-3835.14
69.375			-3835.06
69.25			-3833.78
69.125			-3835.97
69			-3840.81
68.875			-3841.69
68.75			-3844.58
68.625			-3852.11
68.5			-3860.17
68.375			-3864.42
68.25			-3865.19
68.125			-3864.19
68			-3864.75
67.875			-3866.03
67.75			-3868.81
67.625			-3877.94
67.5			-3876.72
67.375			-3877.22
67.25			-3879.14
67.125			-3880.08
67			-3881.56
66.875			-3882.83
66.75			-3884.17
66.625			-3884.89
66.5			-3882.44
66.375			-3885.08
66.25			-3886.83
66.125			-3888.06
66			-3888.36
65.875			-3889.39
65.75			-3889.97
65.625			-3893.61
65.5			-3896.11
65.375			-3898.78
65.25			-3901.92
65.125			-3903.47
65			-3906.42
64.875			-3917.06
64.75			-3920.53
64.625			-3922.56
64.5			-3923.14
64.375			-3924
64.25			-3926.44
64.125			-3926.75
64			-3928.03
63.875			-3928.5
63.75			-3929.14
63.625			-3929.53
63.5			-3931.44
63.375			-3931.25
63.25			-3932.61
63.125			-3934.64
63			-3946.86
62.875			-3974.67
62.75			-3977.44
62.625			-3979.06
62.5			-3980.42
62.375			-3982.81
62.25			-3986
62.125			-3987.61
62			-3988.22
61.875			-3988.06
61.75			-3990.22
61.625			-3990.86
61.5			-3991.33
61.375			-4003.56
61.25			-4012.06
61.125			-4015.69
61			-4023.22
60.875			-4058.33
60.75			-4074.75
60.625			-4084.44
60.5			-4087.81
60.375			-4088.94
60.25			-4091.97
60.125			-4105
60			-4110.36
59.875			-4113.81
59.75			-4114.31
59.625			-4115.5
59.5			-4118.22
59.375			-4125.97
59.25			-4153.97
59.125			-4173.44
59			-4178.86
58.875			-4189.28
58.75			-4204.03
58.625			-4207.25
58.5			-4210.28
58.375			-4214.53
58.25			-4217.47
58.125			-4220.28
58			-4231.56
57.875			-4240.75
57.75			-4251.25
57.625			-4260.86
57.5			-4277.11
57.375			-4297.06
57.25			-4300.61
57.125			-4303.92
57			-4317.89
56.875			-4323.17
56.75			-4327.86
56.625			-4329.53
56.5			-4335.25
56.375			-4337.58
56.25			-4339.28
56.125			-4341.75
56			-4343.97
55.875			-4350.69
55.75			-4373.14
55.625			-4377.42
55.5			-4381.75
55.375			-4385.56
55.25			-4384.97
55.125			-4388.53
55			-4392.72
54.875			-4402.42
54.75			-4409.06
54.625			-4412.31
54.5			-4428.61
54.375			-4432.5
54.25			-4434.92
54.125			-4437.08
54			-4441.11
53.875			-4440.92
53.75			-4441.89
53.625			-4445.47
53.5			-4461.5
53.375			-4467.42
53.25			-4484.56
53.125			-4488.83
53			-4490.94
52.875			-4490.17
52.75			-4491.06
52.625			-4494.67
52.5			-4494.11
52.375			-4497.14
52.25			-4497.92
52.125			-4498.67
52			-4498.36
51.875			-4500.72
51.75			-4502.11
51.625			-4503.39
51.5			-4504.58
51.375			-4502.25
51.25			-4502.28
51.125			-4507.11
51			-4513.36
50.875			-4513.28
50.75			-4512.47
50.625			-4512.06
50.5			-4516.39
50.375			-4516.83
50.25			-4513.72
50.125			-4514.47
50			-4513.5
49.875			-4510.83
49.75			-4509.28
49.625			-4509.42
49.5			-4509.03
49.375			-4508.19
49.25			-4507.36
49.125			-4506.25
49			-4504.14
48.875			-4501.83
48.75			-4511.81
48.625			-4527.58
48.5			-4531.94
48.375			-4530.47
48.25			-4527.89
48.125			-4525.17
48			-4521.75
47.875			-4519.31
47.75			-4520.33
47.625			-4516.36
47.5			-4514.81
47.375			-4512.61
47.25			-4510.47
47.125			-4508.75
47			-4509.69
46.875			-4503.86
46.75			-4500.78
46.625			-4497.31
46.5			-4494.78
46.375			-4491.94
46.25			-4488.17
46.125			-4483.86
46			-4479.75
45.875			-4477.19
45.75			-4473.22
45.625			-4471.28
45.5			-4465.64
45.375			-4461.67
45.25			-4458.11
45.125			-4454.83
45			-4445.94
44.875			-4441.97
44.75			-4437.39
44.625			-4430.67
44.5			-4427.58
44.375			-4425.36
44.25			-4419.08
44.125			-4416.28
44			-4410.17
43.875			-4403.03
43.75			-4395.86
43.625			-4391.75
43.5			-4384.92
43.375			-4382.19
43.25			-4375.28
43.125			-4369.72
43			-4362.5
42.875			-4356.92
42.75			-4347.72
42.625			-4343.33
42.5			-4333.47
42.375			-4327.61
42.25			-4321.44
42.125			-4314.53
42			-4309.11
41.875			-4303.19
41.75			-4295.56
41.625			-4288.56
41.5			-4280.25
41.375			-4273.69
41.25			-4265.86
41.125			-4258.72
41			-4248.25
40.875			-4240.56
40.75			-4232.19
40.625			-4225.47
40.5			-4217.75
40.375			-4211.19
40.25			-4202.11
40.125			-4194.86
40			-4188.25
39.875			-4178.56
39.75			-4170.14
39.625			-4162.33
39.5			-4153.06
39.375			-4146.33
39.25			-4135.56
39.125			-4127.22
39			-4117.53
38.875			-4108.28
38.75			-4101.03
38.625			-4091.03
38.5			-4086.03
38.375			-4076.47
38.25			-4069.83
38.125			-4060.44
38			-4052.72
37.875			-4043.19
37.75			-4034.36
37.625			-4025.81
37.5			-4016.81
37.375			-4009.97
37.25			-3999.31
37.125			-3986.81
37			-3979.42
36.875			-3970.56
36.75			-3963.17
36.625			-3952.78
36.5			-3945.39
36.375			-3932.22
36.25			-3924.67
36.125			-3913.67
36			-3904.42
35.875			-3894.08
35.75			-3884.86
35.625			-3876.64
35.5			-3866.22
35.375			-3856.92
35.25			-3845.86
35.125			-3838.03
35			-3827.69
34.875			-3818.08
34.75			-3807.83
34.625			-3794.78
34.5			-3783.72
34.375			-3774.67
34.25			-3767.44
34.125			-3759.44
34			-3748.89
33.875			-3739.89
33.75			-3729.67
33.625			-3721.19
33.5			-3708.17
33.375			-3697.86
33.25			-3690.69
33.125			-3677.47
33			-3668.61
32.875			-3656.44
32.75			-3647.47
32.625			-3637.19
32.5			-3624.53
32.375			-3615.64
32.25			-3603.61
32.125			-3594.53
32			-3581.69
31.875			-3572.19
31.75			-3560.78
31.625			-3553.94
31.5			-3543.81
31.375			-3530.19
31.25			-3517.83
31.125			-3506.58
31			-3497.69
30.875			-3490.39
30.75			-3480.08
30.625			-3468.75
30.5			-3456.67
30.375			-3448.22
30.25			-3439.94
30.125			-3428.25
30			-3416.31
29.875			-3406.89
29.75			-3396.67
29.625			-3387.86
29.5			-3377.08
29.375			-3367.89
29.25			-3354.94
29.125			-3344.58
29			-3335.83
28.875			-3325.72
28.75			-3312.89
28.625			-3305.64
28.5			-3294.03
28.375			-3285.06
28.25			-3272.78
28.125			-3263.44
28			-3254.53
27.875			-3244.17
27.75			-3235.58
27.625			-3226.78
27.5			-3214.58
27.375			-3205.67
27.25			-3194.22
27.125			-3185.61
27			-3175.11
26.875			-3167.08
26.75			-3156.72
26.625			-3148.94
26.5			-3134.67
26.375			-3125.97
26.25			-3115.42
26.125			-3110.56
26			-3101.19
25.875			-3091.69
25.75			-3079.69
25.625			-3072.03
25.5			-3058.86
25.375			-3048.42
25.25			-3037.42
25.125			-3029.56
25			-3023.36
24.875			-3013.17
24.75			-3003.14
24.625			-2995.36
24.5			-2987.08
24.375			-2976.78
24.25			-2964.22
24.125			-2960.31
24			-2955.94
23.875			-2948.17
23.75			-2939.69
23.625			-2931.64
23.5			-2922.61
23.375			-2914.5
23.25			-2909.06
23.125			-2899.97
23			-2888.78
22.875			-2881.92
22.75			-2874.89
22.625			-2868.44
22.5			-2858.11
22.375			-2848.5
22.25			-2837.67
22.125			-2833.72
22			-2825.39
21.875			-2818.06
21.75			-2808.08
21.625			-2797.03
21.5			-2789.69
21.375			-2782.97
21.25			-2774.64
21.125			-2766.08
21			-2757.31
20.875			-2750.11
20.75			-2741.75
20.625			-2734.78
20.5			-2728.72
20.375			-2716.92
20.25			-2709.14
20.125			-2699.53
20			-2686.11
19.875			-2676.58
19.75			-2669.31
19.625			-2659.47
19.5			-2649.42
19.375			-2644.83
19.25			-2637.14
19.125			-2633.97
19			-2627.92
18.875			-2618.44
18.75			-2610.89
18.625			-2604.11
18.5			-2595.06
18.375			-2588.69
18.25			-2577.31
18.125			-2573.92
18			-2561.92
17.875			-2554.75
17.75			-2543.89
17.625			-2538.33
17.5			-2525.28
17.375			-2518.5
17.25			-2510.14
17.125			-2505.92
17			-2494.28
16.875			-2482.83
16.75			-2477.39
16.625			-2470.58
16.5			-2460.89
16.375			-2448.5
16.25			-2444
16.125			-2436.69
16			-2425.11
15.875			-2417.19
15.75			-2410.78
15.625			-2405.47
15.5			-2394.44
15.375			-2385.92
15.25			-2374.25
15.125			-2366.56
15			-2360.03
14.875			-2349.44
14.75			-2343.33
14.625			-2332.94
14.5			-2323.19
14.375			-2316.06
14.25			-2310.61
14.125			-2300.69
14			-2292.78
13.875			-2278.39
13.75			-2272.89
13.625			-2261.19
13.5			-2252.14
13.375			-2240.94
13.25			-2234.31
13.125			-2224.67
13			-2214.03
12.875			-2200.69
12.75			-2194.78
12.625			-2178.36
12.5			-2165.97
12.375			-2160.25
12.25			-2150.81
12.125			-2139.19
12			-2127.28
11.875			-2111.36
11.75			-2103.28
11.625			-2094.81
11.5			-2085.03
11.375			-2070.03
11.25			-2059.64
11.125			-2045.89
11			-2034.22
10.875			-2021.44
10.75			-2011.75
10.625			-1992.11
10.5			-1979.75
10.375			-1966.39
10.25			-1955
10.125			-1943.5
10			-1927.22
9.875			-1915.72
9.75			-1902.58
9.625			-1889.25
9.5			-1873.31
9.375			-1857.67
9.25			-1842.89
9.125			-1829.61
9			-1815.19
8.875			-1806.39
8.75			-1790.17
8.625			-1777.33
8.5			-1762.33
8.375			-1749.86
8.25			-1733
8.125			-1721.25
8			-1702.61
7.875			-1690.25
7.75			-1674.92
7.625			-1655.25
7.5			-1637.81
7.375			-1620.92
7.25			-1602.89
7.125			-1583.69
7			-1566.11
6.875			-1547.31
6.75			-1527.56
6.625			-1508.44
6.5			-1485.19
6.375			-1466.08
6.25			-1444.86
6.125			-1423.5
6			-1400.53
5.875			-1375.64
5.75			-1356.61
5.625			-1331.97
5.5			-1310.69
5.375			-1288.03
5.25			-1264.22
5.125			-1239.64
5			-1212.64
4.875			-1187.94
4.75			-1163.08
4.625			-1128.75
4.5			-1099.58
4.375			-1070.56
4.25			-1041.44
4.125			-1009.25
4			-979
3.875			-944.528
3.75			-916.611
3.625			-879.917
3.5			-846.417
3.375			-815.25
3.25			-780.778
3.125			-749.194
3			-710.417
2.875			-676.833
2.75			-639.583
2.625			-606.222
2.5			-571.528
2.375			-536.111
2.25			-499.389
2.125			-458.111
2			-423.778
1.875			-385
1.75			-351.694
1.625			-311.694
1.5			-272.694
1.375			-235.278
1.25			-198.417
1.125			-157.583
1			-118.222
0.875			-79.3333
0.75			-44.4167
0.625			-1.88889
0.5			35.7222
0.375			81.9167
0.25			115.694
0.125			161.278
0			196.167
-0.125			237.694
-0.25			278.806
-0.375			326.528
-0.5			361.806
-0.625			402.528
-0.75			440.806
-0.875			483.667
-1			525.111
-1.125			568.444
-1.25			604.194
-1.375			643.806
-1.5			684.944
-1.625			729.583
-1.75			772.444
-1.875			816.139
-2			852.222
-2.125			894.167
-2.25			937.111
-2.375			979.917
-2.5			1022.39
-2.625			1061.42
-2.75			1101.94
-2.875			1145.47
-3			1188.81
-3			1208.53
-2.875			1175.22
-2.75			1126.25
-2.625			1085.36
-2.5			1041.03
-2.375			1003.69
-2.25			960.861
-2.125			914.833
-2			867.972
-1.875			826.917
-1.75			781.167
-1.625			743.333
-1.5			692.528
-1.375			650.917
-1.25			600.833
-1.125			561.556
-1			514.778
-0.875			471.028
-0.75			420.944
-0.625			381.389
-0.5			332.278
-0.375			291.056
-0.25			245.111
-0.125			200.083
0			152.889
0.125			109.889
0.25			67.4722
0.375			17.5556
0.5			-27.9167
0.625			-72.6111
0.75			-115.111
0.875			-161.25
1			-203.528
1.125			-248.5
1.25			-292.806
1.375			-339.556
1.5			-382.111
1.625			-430.111
1.75			-472.111
1.875			-519.111
2			-560.333
2.125			-609.389
2.25			-651.806
2.375			-697.806
2.5			-741.722
2.625			-788.639
2.75			-828.333
2.875			-877.111
3			-917.333
3.125			-964.583
3.25			-1002.22
3.375			-1052.44
3.5			-1092.83
3.625			-1139.03
3.75			-1183
3.875			-1231.56
4			-1268.92
4.125			-1319.67
4.25			-1359.97
4.375			-1406.61
4.5			-1448.92
4.625			-1492.69
4.75			-1529.92
4.875			-1576.83
5			-1618.69
5.125			-1665.75
5.25			-1706.61
5.375			-1747.75
5.5			-1790.94
5.625			-1834.58
5.75			-1871.92
5.875			-1915.83
6			-1956.61
6.125			-1998.83
6.25			-2035
6.375			-2078.67
6.5			-2113.25
6.625			-2156.5
6.75			-2190.75
6.875			-2232.94
7			-2270.64
7.125			-2310.44
7.25			-2345.86
7.375			-2382.17
7.5			-2419.58
7.625			-2459.25
7.75			-2490.08
7.875			-2520.06
8			-2552.89
8.125			-2587.58
8.25			-2623.06
8.375			-2652.97
8.5			-2679.5
8.625			-2709.22
8.75			-2743.33
8.875			-2774.08
9			-2799.31
9.125			-2824.69
9.25			-2849.67
9.375			-2877.42
9.5			-2907.03
9.625			-2931.28
9.75			-2956.81
9.875			-2977.28
10			-3003.97
10.125			-3024.19
10.25			-3045.83
10.375			-3068.19
10.5			-3086.97
10.625			-3103.72
10.75			-3122.03
10.875			-3141.31
11			-3163.28
11.125			-3182.89
11.25			-3200.94
11.375			-3217.61
11.5			-3235
11.625			-3252.86
11.75			-3269.11
11.875			-3283.94
12			-3291.94
12.125			-3308.69
12.25			-3325.06
12.375			-3345.69
12.5			-3358.19
12.625			-3370.47
12.75			-3382
12.875			-3396.31
13			-3409.44
13.125			-3421.33
13.25			-3433.44
13.375			-3442.08
13.5			-3452.56
13.625			-3462
13.75			-3473.44
13.875			-3479.19
14			-3497.33
14.125			-3506.17
14.25			-3522.11
14.375			-3531.53
14.5			-3539.5
14.625			-3543.72
14.75			-3555.86
14.875			-3557.36
15			-3566.33
15.125			-3573.5
15.25			-3581.44
15.375			-3582.11
15.5			-3593.61
15.625			-3596.33
15.75			-3601.75
15.875			-3607.64
16			-3614.33
16.125			-3622.53
16.25			-3629.61
16.375			-3634.47
16.5			-3642.5
16.625			-3647.92
16.75			-3656.39
16.875			-3659.94
17			-3665.25
17.125			-3668.5
17.25			-3676
17.375			-3681.97
17.5			-3686.53
17.625			-3691.08
17.75			-3698.89
17.875			-3700.36
18			-3704.89
18.125			-3710.39
18.25			-3720
18.375			-3725.08
18.5			-3733.86
18.625			-3734.75
18.75			-3743.36
18.875			-3750.42
19			-3756.31
19.125			-3760.22
19.25			-3763.97
19.375			-3769.5
19.5			-3775.81
19.625			-3782.03
19.75			-3788.56
19.875			-3790.17
20			-3794.17
20.125			-3799.92
20.25			-3803.22
20.375			-3807.97
20.5			-3813.75
20.625			-3819.69
20.75			-3823.19
20.875			-3824.53
21			-3827.67
21.125			-3831.47
21.25			-3836.11
21.375			-3840.69
21.5			-3846.06
21.625			-3850.14
21.75			-3851.67
21.875			-3859.58
22			-3863.25
22.125			-3868.92
22.25			-3870.61
22.375			-3875.17
22.5			-3878.31
22.625			-3876.64
22.75			-3882.31
22.875			-3889.69
23			-3890.47
23.125			-3894.36
23.25			-3895.42
23.375			-3896.94
23.5			-3902.75
23.625			-3909.89
23.75			-3912.56
23.875			-3917.75
24			-3922.69
24.125			-3925.83
24.25			-3930.61
24.375			-3935.94
24.5			-3939.67
24.625			-3942.75
24.75			-3947.61
24.875			-3954.92
25			-3957.81
25.125			-3958.97
25.25			-3962.53
25.375			-3965.78
25.5			-3974.25
25.625			-3977.75
25.75			-3982.61
25.875			-3988.83
26			-3988.36
26.125			-3990.5
26.25			-3995.89
26.375			-4002.83
26.5			-4007.11
26.625			-4008.42
26.75			-4012.14
26.875			-4017.03
27			-4018.33
27.125			-4023.72
27.25			-4027.94
27.375			-4028.64
27.5			-4034.56
27.625			-4040.56
27.75			-4045.75
27.875			-4049.81
28			-4053.97
28.125			-4058.81
28.25			-4062.31
28.375			-4067.14
28.5			-4071.03
28.625			-4075.06
28.75			-4078.44
28.875			-4080.83
29			-4084.33
29.125			-4089.81
29.25			-4095.31
29.375			-4100.14
29.5			-4103.44
29.625			-4108.89
29.75			-4114.61
29.875			-4121.92
30			-4125.03
30.125			-4128.19
30.25			-4136.25
30.375			-4144.03
30.5			-4148.28
30.625			-4156.31
30.75			-4160.47
30.875			-4165.19
31			-4170
31.125			-4177.22
31.25			-4184.39
31.375			-4189.39
31.5			-4192.69
31.625			-4201.58
31.75			-4206.22
31.875			-4214.39
32			-4218.33
32.125			-4224.53
32.25			-4231.19
32.375			-4236.64
32.5			-4243.69
32.625			-4250.31
32.75			-4256.53
32.875			-4262.31
33			-4268.58
33.125			-4276.47
33.25			-4280.36
33.375			-4287.47
33.5			-4293.31
33.625			-4299.72
33.75			-4305.5
33.875			-4312.61
34			-4319.5
34.125			-4324.39
34.25			-4330.47
34.375			-4335.64
34.5			-4343.33
34.625			-4353.11
34.75			-4357.61
34.875			-4362.5
35			-4372.97
35.125			-4377.14
35.25			-4386.72
35.375			-4393.94
35.5			-4397.64
35.625			-4405.19
35.75			-4412.69
35.875			-4420.17
36			-4426.61
36.125			-4429.89
36.25			-4437.58
36.375			-4446.19
36.5			-4452.94
36.625			-4456.42
36.75			-4463.39
36.875			-4470.33
37			-4479.36
37.125			-4486.06
37.25			-4491.83
37.375			-4498.83
37.5			-4504.64
37.625			-4510.36
37.75			-4521.92
37.875			-4525.97
38			-4532.25
38.125			-4539.86
38.25			-4546.42
38.375			-4552
38.5			-4559.44
38.625			-4565.36
38.75			-4573.64
38.875			-4579.39
39			-4583.44
39.125			-4590.19
39.25			-4595.69
39.375			-4602.39
39.5			-4609.78
39.625			-4614.19
39.75			-4621.33
39.875			-4630.17
40			-4639.17
40.125			-4644.39
40.25			-4647.17
40.375			-4652.42
40.5			-4660.47
40.625			-4670.67
40.75			-4676.31
40.875			-4684.69
41			-4690.81
41.125			-4699.06
41.25			-4701.39
41.375			-4708.61
41.5			-4713.39
41.625			-4718.58
41.75			-4726.64
41.875			-4732.86
42			-4737.47
42.125			-4745.42
42.25			-4751.06
42.375			-4756.83
42.5			-4760.83
42.625			-4765.5
42.75			-4773.17
42.875			-4777.31
43			-4782.19
43.125			-4788.19
43.25			-4792.33
43.375			-4797.36
43.5			-4801.56
43.625			-4806.28
43.75			-4812.67
43.875			-4818
44			-4823.67
44.125			-4831.03
44.25			-4836.14
44.375			-4840.61
44.5			-4845.06
44.625			-4845.75
44.75			-4850.97
44.875			-4853.58
45			-4857.25
45.125			-4860.56
45.25			-4863.81
45.375			-4866.69
45.5			-4869.11
45.625			-4873.14
45.75			-4877.11
45.875			-4881.58
46			-4885.75
46.125			-4891.03
46.25			-4893.17
46.375			-4893.17
46.5			-4896
46.625			-4900.89
46.75			-4905.75
46.875			-4909.94
47			-4910.67
47.125			-4911.22
47.25			-4912.81
47.375			-4915.61
47.5			-4913.78
47.625			-4918.44
47.75			-4921.36
47.875			-4920.53
48			-4919.44
48.125			-4923.69
48.25			-4927.08
48.375			-4927.89
48.5			-4927.39
48.625			-4929.81
48.75			-4929.94
48.875			-4933.86
49			-4933.97
49.125			-4935.03
49.25			-4935.58
49.375			-4933.72
49.5			-4936.39
49.625			-4935.03
49.75			-4932.19
49.875			-4934.69
50			-4932.92
50.125			-4933.69
50.25			-4932.44
50.375			-4933.42
50.5			-4932.03
50.625			-4931.47
50.75			-4927.53
50.875			-4927.64
51			-4924.03
51.125			-4920.94
51.25			-4922.03
51.375			-4918.25
51.5			-4915.69
51.625			-4911.94
51.75			-4912.61
51.875			-4911.58
52			-4908.81
52.125			-4905.17
52.25			-4901.94
52.375			-4897.58
52.5			-4892.31
52.625			-4889.89
52.75			-4884.58
52.875			-4881.25
53			-4877.25
53.125			-4873.69
53.25			-4871.44
53.375			-4866.17
53.5			-4863.69
53.625			-4859.5
53.75			-4854.89
53.875			-4850.36
54			-4844.39
54.125			-4840.58
54.25			-4835.94
54.375			-4830.64
54.5			-4828.69
54.625			-4823.89
54.75			-4817.33
54.875			-4812.78
55			-4805.36
55.125			-4795.81
55.25			-4792.56
55.375			-4785.92
55.5			-4780.06
55.625			-4775.81
55.75			-4770.06
55.875			-4761.86
56			-4756.5
56.125			-4749.33
56.25			-4741.19
56.375			-4733.11
56.5			-4725.69
56.625			-4718.44
56.75			-4711.33
56.875			-4700.92
57			-4691.28
57.125			-4687.67
57.25			-4679.89
57.375			-4672.72
57.5			-4666.08
57.625			-4660.44
57.75			-4650.78
57.875			-4638.94
58			-4630.83
58.125			-4622.17
58.25			-4616.78
58.375			-4606.58
58.5			-4599.97
58.625			-4592.5
58.75			-4584.03
58.875			-4574.69
59			-4562.08
59.125			-4554.61
59.25			-4546
59.375			-4538.72
59.5			-4530.14
59.625			-4521.14
59.75			-4510.25
59.875			-4500.31
60			-4491.33
60.125			-4482.47
60.25			-4474.92
60.375			-4468.06
60.5			-4461.22
60.625			-4452
60.75			-4439.97
60.875			-4428.61
61			-4419.31
61.125			-4412.36
61.25			-4400.75
61.375			-4391.14
61.5			-4375.42
61.625			-4367.39
61.75			-4354.94
61.875			-4342.22
62			-4335.22
62.125			-4325.19
62.25			-4316.86
62.375			-4306.83
62.5			-4295.44
62.625			-4289.5
62.75			-4278.64
62.875			-4270.56
63			-4263.53
63.125			-4254.19
63.25			-4244.33
63.375			-4235.31
63.5			-4222.44
63.625			-4216.53
63.75			-4205.92
63.875			-4195.14
64			-4188.14
64.125			-4178.89
64.25			-4171.03
64.375			-4161.83
64.5			-4152.17
64.625			-4141.64
64.75			-4129.69
64.875			-4121.25
65			-4113.33
65.125			-4104.17
65.25			-4095.25
65.375			-4083.22
65.5			-4072.39
65.625			-4058.83
65.75			-4052.17
65.875			-4045.61
66			-4040.36
66.125			-4034.25
66.25			-4029.89
66.375			-4020.72
66.5			-4011
66.625			-4002.19
66.75			-3997.42
66.875			-3987.83
67			-3979.11
67.125			-3969.5
67.25			-3961.78
67.375			-3953.47
67.5			-3951.36
67.625			-3945.39
67.75			-3940.33
67.875			-3934.47
68			-3927.72
68.125			-3920.33
68.25			-3917.42
68.375			-3910.69
68.5			-3906
68.625			-3902.72
68.75			-3896.89
68.875			-3891.67
69			-3890.33
69.125			-3885.58
69.25			-3879.83
69.375			-3874.67
69.5			-3873.81
69.625			-3871.31
69.75			-3869.39
69.875			-3866.31
70			-3862.31
70.125			-3860.19
70.25			-3859.17
70.375			-3855.06
70.5			-3855.67
70.625			-3854.36
70.75			-3852.06
70.875			-3851.58
71			-3849.11
71.125			-3848.86
71.25			-3847.06
71.375			-3844.44
71.5			-3843.17
71.625			-3841.67
71.75			-3839.11
71.875			-3835.03
72			-3832.25
72.125			-3831.72
72.25			-3829.03
72.375			-3826.69
72.5			-3823.78
72.625			-3821.5
72.75			-3820.44
72.875			-3817.06
73			-3814.39
73.125			-3813.22
73.25			-3812.19
73.375			-3811.03
73.5			-3809.86
73.625			-3810.25
73.75			-3808.69
73.875			-3808.39
74			-3806.75
74.125			-3805.64
74.25			-3804.08
74.375			-3802.19
74.5			-3801.44
74.625			-3801.31
74.75			-3800.08
74.875			-3798.06
75			-3799.08
75.125			-3795.58
75.25			-3793.47
75.375			-3793.58
75.5			-3793.33
75.625			-3794.42
75.75			-3792.67
75.875			-3792.53
76			-3792.42
76.125			-3793.28
76.25			-3792.25
76.375			-3793.39
76.5			-3793.14
76.625			-3795.14
76.75			-3794.17
76.875			-3793.58
77			-3792.17
77.125			-3791.36
77.25			-3793.22
77.375			-3790.56
77.5			-3791.22
77.625			-3788.75
77.75			-3791.25
77.875			-3791.39
78			-3790.44
78.125			-3788.53
78.25			-3787.94
78.375			-3789.56
78.5			-3789.36
78.625			-3788.72
78.75			-3789.92
78.875			-3790.22
79			-3790.86
79.125			-3790.03
79.25			-3788.75
79.375			-3788.39
79.5			-3788.22
79.625			-3787.36
79.75			-3788.5
79.875			-3786.75
80			-3786.03
80.125			-3785.75
80.25			-3786.44
80.375			-3784.94
80.5			-3785.61
80.625			-3785.97
80.75			-3785.28
80.875			-3784.11
81			-3782.39
81.125			-3783.58
81.25			-3784.56
81.375			-3786.36
81.5			-3785.31
81.625			-3783.94
81.75			-3785.06
81.875			-3785.58
82			-3786.69
82.125			-3787.06
82.25			-3785.58
82.375			-3785.17
82.5			-3784.83
82.625			-3784.86
82.75			-3785.06
82.875			-3785.28
83			-3784.28
83.125			-3782
83.25			-3783.31
83.375			-3783.56
83.5			-3784.56
83.625			-3784.86
83.75			-3783.89
83.875			-3784.08
84			-3783.67
84.125			-3783.42
84.25			-3784.08
84.375			-3781.83
84.5			-3780.67
84.625			-3780.33
84.75			-3783.39
84.875			-3784.17
85			-3782.5
85.125			-3782.31
85.25			-3781.78
85.375			-3781.75
85.5			-3783.64
85.625			-3781.5
85.75			-3780.31
85.875			-3779.89
86			-3780.28
86.125			-3779.28
86.25			-3778.61
86.375			-3778.75
86.5			-3779.61
86.625			-3780.19
86.75			-3780.31
86.875			-3780.5
87			-3780.44
87.125			-3778.97
87.25			-3779.28
87.375			-3778.69
87.5			-3779.78
87.625			-3779.81
87.75			-3777.53
87.875			-3776.78
88			-3779.56
88.125			-3777.44
88.25			-3777.58
88.375			-3778.31
88.5			-3779.33
88.625			-3780.42
88.75			-3780.94
88.875			-3778.75
89			-3777.67
89.125			-3777.22
89.25			-3775.81
89.375			-3775.83
89.5			-3777.64
89.625			-3778.94
89.75			-3777.56
89.875			-3777.53
90			-3777.47
90.125			-3776.36
90.25			-3776.28
90.375			-3777.06
90.5			-3774.86
90.625			-3774.56
90.75			-3775.14
90.875			-3775.94
91			-3774.61
91.125			-3776.06
91.25			-3775.19
91.375			-3773.44
91.5			-3773.61
91.625			-3773.81
91.75			-3772.94
91.875			-3771.75
92			-3770.47
92.125			-3772.86
92.25			-3772.56
92.375			-3772.81
92.5			-3773.14
92.625			-3774.47
92.75			-3774.42
92.875			-3774.28
93			-3774.5
93.125			-3772.78
93.25			-3773.78
93.375			-3773.86
93.5			-3772.94
93.625			-3772.56
93.75			-3772.64
93.875			-3774.33
94			-3773.89
94.125			-3772.94
94.25			-3770.86
94.375			-3772.58
94.5			-3771.39
94.625			-3772.64
94.75			-3771.44
94.875			-3771.14
95			-3774.28
95.125			-3773.5
95.25			-3773.33
95.375			-3775.44
95.5			-3772.08
95.625			-3771.97
95.75			-3772.47
95.875			-3774.53
96			-3773.69
96.125			-3771.31
96.25			-3772.42
96.375			-3770.58
96.5			-3770.86
96.625			-3770.83
96.75			-3771
96.875			-3770.81
97			-3769.81
