Z (um),Deflection (um)
0.145,-0.012119
0.14485,-0.012131
0.1447,-0.012108
0.14455,-0.012117
0.1444,-0.012128
0.14425,-0.012122
0.1441,-0.012091
0.14395,-0.012096
0.1438,-0.012091
0.14365,-0.012079
0.1435,-0.012073
0.14335,-0.012085
0.1432,-0.012071
0.14305,-0.012079
0.1429,-0.012108
0.14275,-0.012091
0.1426,-0.012134
0.14245,-0.012091
0.1423,-0.012082
0.14215,-0.012102
0.142,-0.012114
0.14185,-0.012125
0.1417,-0.012119
0.14155,-0.01216
0.1414,-0.012096
0.14125,-0.012076
0.1411,-0.012111
0.14095,-0.012079
0.1408,-0.012117
0.14065,-0.012099
0.1405,-0.012117
0.14035,-0.012142
0.1402,-0.012085
0.14005,-0.012128
0.1399,-0.012157
0.13975,-0.012148
0.1396,-0.012154
0.13945,-0.012134
0.1393,-0.012137
0.13915,-0.012131
0.139,-0.012082
0.13885,-0.012076
0.1387,-0.012125
0.13855,-0.012128
0.1384,-0.012094
0.13825,-0.012111
0.1381,-0.012085
0.13795,-0.012102
0.1378,-0.012053
0.13765,-0.012096
0.1375,-0.012036
0.13735,-0.012085
0.1372,-0.012111
0.13705,-0.012119
0.1369,-0.012111
0.13675,-0.012105
0.1366,-0.012125
0.13645,-0.012108
0.1363,-0.012108
0.13615,-0.012085
0.136,-0.012088
0.13585,-0.012122
0.1357,-0.01214
0.13555,-0.012157
0.1354,-0.012134
0.13525,-0.012134
0.1351,-0.012125
0.13495,-0.012122
0.1348,-0.012108
0.13465,-0.012117
0.1345,-0.012114
0.13435,-0.012111
0.1342,-0.012117
0.13405,-0.012134
0.1339,-0.012119
0.13375,-0.012079
0.1336,-0.012128
0.13345,-0.012151
0.1333,-0.012154
0.13315,-0.012166
0.133,-0.012171
0.13285,-0.01214
0.1327,-0.012122
0.13255,-0.01214
0.1324,-0.01214
0.13225,-0.012154
0.1321,-0.012145
0.13195,-0.012114
0.1318,-0.012137
0.13165,-0.012122
0.1315,-0.012137
0.13135,-0.012131
0.1312,-0.01216
0.13105,-0.012117
0.1309,-0.012128
0.13075,-0.01216
0.1306,-0.012154
0.13045,-0.012157
0.1303,-0.012151
0.13015,-0.012134
0.13,-0.012163
0.12985,-0.012191
0.1297,-0.012191
0.12955,-0.012174
0.1294,-0.012163
0.12925,-0.01216
0.1291,-0.012163
0.12895,-0.012177
0.1288,-0.012203
0.12865,-0.012171
0.1285,-0.012166
0.12835,-0.012183
0.1282,-0.012174
0.12805,-0.012171
0.1279,-0.012163
0.12775,-0.012189
0.1276,-0.012171
0.12745,-0.01216
0.1273,-0.012174
0.12715,-0.012163
0.127,-0.012168
0.12685,-0.0122
0.1267,-0.012197
0.12655,-0.012203
0.1264,-0.012151
0.12625,-0.012151
0.1261,-0.012174
0.12595,-0.012148
0.1258,-0.012166
0.12565,-0.0122
0.1255,-0.012183
0.12535,-0.012151
0.1252,-0.012191
0.12505,-0.012166
0.1249,-0.01218
0.12475,-0.012154
0.1246,-0.012183
0.12445,-0.012209
0.1243,-0.012174
0.12415,-0.012189
0.124,-0.012174
0.12385,-0.012197
0.1237,-0.012197
0.12355,-0.012186
0.1234,-0.012183
0.12325,-0.012142
0.1231,-0.012163
0.12295,-0.012174
0.1228,-0.012174
0.12265,-0.012166
0.1225,-0.012154
0.12235,-0.012166
0.1222,-0.012174
0.12205,-0.012171
0.1219,-0.012145
0.12175,-0.01216
0.1216,-0.012189
0.12145,-0.012171
0.1213,-0.012191
0.12115,-0.012171
0.121,-0.012166
0.12085,-0.012174
0.1207,-0.012203
0.12055,-0.012177
0.1204,-0.012171
0.12025,-0.012148
0.1201,-0.012114
0.11995,-0.012174
0.1198,-0.012194
0.11965,-0.012177
0.1195,-0.012183
0.11935,-0.012206
0.1192,-0.012209
0.11905,-0.012194
0.1189,-0.01218
0.11875,-0.012191
0.1186,-0.012203
0.11845,-0.012166
0.1183,-0.012189
0.11815,-0.012203
0.118,-0.0122
0.11785,-0.012197
0.1177,-0.0122
0.11755,-0.012183
0.1174,-0.012166
0.11725,-0.012171
0.1171,-0.012154
0.11695,-0.012177
0.1168,-0.012189
0.11665,-0.0122
0.1165,-0.012191
0.11635,-0.012191
0.1162,-0.012183
0.11605,-0.012191
0.1159,-0.012217
0.11575,-0.012206
0.1156,-0.012212
0.11545,-0.012203
0.1153,-0.012183
0.11515,-0.012171
0.115,-0.012183
0.11485,-0.012189
0.1147,-0.012186
0.11455,-0.012177
0.1144,-0.012197
0.11425,-0.012191
0.1141,-0.012183
0.11395,-0.012154
0.1138,-0.012189
0.11365,-0.012171
0.1135,-0.012197
0.11335,-0.012186
0.1132,-0.012217
0.11305,-0.012206
0.1129,-0.012203
0.11275,-0.012206
0.1126,-0.01222
0.11245,-0.012206
0.1123,-0.012186
0.11215,-0.0122
0.112,-0.0122
0.11185,-0.012191
0.1117,-0.012223
0.11155,-0.012203
0.1114,-0.012232
0.11125,-0.012226
0.1111,-0.012237
0.11095,-0.012232
0.1108,-0.012226
0.11065,-0.012252
0.1105,-0.012217
0.11035,-0.012223
0.1102,-0.012194
0.11005,-0.0122
0.1099,-0.012223
0.10975,-0.012232
0.1096,-0.012226
0.10945,-0.012223
0.1093,-0.012229
0.10915,-0.012223
0.109,-0.012186
0.10885,-0.012223
0.1087,-0.01224
0.10855,-0.012223
0.1084,-0.012229
0.10825,-0.01224
0.1081,-0.012252
0.10795,-0.012246
0.1078,-0.012226
0.10765,-0.0122
0.1075,-0.012203
0.10735,-0.012223
0.1072,-0.012223
0.10705,-0.012206
0.1069,-0.01224
0.10675,-0.012223
0.1066,-0.012223
0.10645,-0.012206
0.1063,-0.012214
0.10615,-0.01224
0.106,-0.012206
0.10585,-0.012226
0.1057,-0.012243
0.10555,-0.012272
0.1054,-0.012232
0.10525,-0.01222
0.1051,-0.012258
0.10495,-0.012269
0.1048,-0.012237
0.10465,-0.012275
0.1045,-0.012232
0.10435,-0.012243
0.1042,-0.012232
0.10405,-0.012217
0.1039,-0.012197
0.10375,-0.012191
0.1036,-0.0122
0.10345,-0.012235
0.1033,-0.012263
0.10315,-0.012235
0.103,-0.012206
0.10285,-0.012183
0.1027,-0.012194
0.10255,-0.012189
0.1024,-0.01222
0.10225,-0.012189
0.1021,-0.012209
0.10195,-0.012197
0.1018,-0.012206
0.10165,-0.01218
0.1015,-0.012226
0.10135,-0.012232
0.1012,-0.012217
0.10105,-0.012209
0.1009,-0.012206
0.10075,-0.012237
0.1006,-0.0122
0.10045,-0.01222
0.1003,-0.012229
0.10015,-0.012214
0.1,-0.012223
0.09985,-0.012246
0.0997,-0.012272
0.09955,-0.012283
0.0994,-0.012269
0.09925,-0.01226
0.0991,-0.012258
0.09895,-0.012252
0.0988,-0.01224
0.09865,-0.012229
0.0985,-0.012229
0.09835,-0.012223
0.0982,-0.012226
0.09805,-0.012209
0.0979,-0.0122
0.09775,-0.01224
0.0976,-0.012252
0.09745,-0.012246
0.0973,-0.012263
0.09715,-0.012255
0.097,-0.012283
0.09685,-0.012272
0.0967,-0.012249
0.09655,-0.012252
0.0964,-0.01224
0.09625,-0.012286
0.0961,-0.012295
0.09595,-0.012258
0.0958,-0.012252
0.09565,-0.012235
0.0955,-0.01226
0.09535,-0.012306
0.0952,-0.012278
0.09505,-0.012243
0.0949,-0.01226
0.09475,-0.012278
0.0946,-0.012235
0.09445,-0.012243
0.0943,-0.01224
0.09415,-0.012255
0.094,-0.012263
0.09385,-0.012281
0.0937,-0.012278
0.09355,-0.012275
0.0934,-0.012235
0.09325,-0.012255
0.0931,-0.01224
0.09295,-0.01224
0.0928,-0.012266
0.09265,-0.012246
0.0925,-0.012272
0.09235,-0.012246
0.0922,-0.012237
0.09205,-0.012275
0.0919,-0.012272
0.09175,-0.012269
0.0916,-0.012263
0.09145,-0.012246
0.0913,-0.01226
0.09115,-0.012255
0.091,-0.012232
0.09085,-0.012246
0.0907,-0.012252
0.09055,-0.012286
0.0904,-0.012269
0.09025,-0.01226
0.0901,-0.012289
0.08995,-0.012281
0.0898,-0.01226
0.08965,-0.012266
0.0895,-0.012266
0.08935,-0.012272
0.0892,-0.012295
0.08905,-0.012283
0.0889,-0.012301
0.08875,-0.012295
0.0886,-0.012289
0.08845,-0.012295
0.0883,-0.012312
0.08815,-0.012295
0.088,-0.012304
0.08785,-0.012292
0.0877,-0.012289
0.08755,-0.012295
0.0874,-0.012283
0.08725,-0.012269
0.0871,-0.012235
0.08695,-0.012252
0.0868,-0.012269
0.08665,-0.012272
0.0865,-0.012281
0.08635,-0.012275
0.0862,-0.012283
0.08605,-0.012281
0.0859,-0.012266
0.08575,-0.012266
0.0856,-0.012255
0.08545,-0.012289
0.0853,-0.012278
0.08515,-0.012278
0.085,-0.012278
0.08485,-0.01226
0.0847,-0.012229
0.08455,-0.01226
0.0844,-0.012275
0.08425,-0.012263
0.0841,-0.012269
0.08395,-0.012332
0.0838,-0.012324
0.08365,-0.012298
0.0835,-0.012301
0.08335,-0.012298
0.0832,-0.012301
0.08305,-0.012304
0.0829,-0.012306
0.08275,-0.012301
0.0826,-0.012272
0.08245,-0.012289
0.0823,-0.012283
0.08215,-0.012286
0.082,-0.012315
0.08185,-0.012306
0.0817,-0.012295
0.08155,-0.012324
0.0814,-0.012335
0.08125,-0.012269
0.0811,-0.012269
0.08095,-0.012298
0.0808,-0.012304
0.08065,-0.012286
0.0805,-0.012324
0.08035,-0.012304
0.0802,-0.012304
0.08005,-0.012309
0.0799,-0.012272
0.07975,-0.012275
0.0796,-0.012278
0.07945,-0.012275
0.0793,-0.012298
0.07915,-0.012263
0.079,-0.012315
0.07885,-0.012318
0.0787,-0.012289
0.07855,-0.012327
0.0784,-0.012327
0.07825,-0.012315
0.0781,-0.012318
0.07795,-0.012286
0.0778,-0.012312
0.07765,-0.012324
0.0775,-0.01233
0.07735,-0.012286
0.0772,-0.012304
0.07705,-0.012298
0.0769,-0.012315
0.07675,-0.012309
0.0766,-0.012318
0.07645,-0.012335
0.0763,-0.012312
0.07615,-0.01233
0.076,-0.012301
0.07585,-0.012301
0.0757,-0.012332
0.07555,-0.01235
0.0754,-0.012341
0.07525,-0.012335
0.0751,-0.01233
0.07495,-0.01235
0.0748,-0.012358
0.07465,-0.012378
0.0745,-0.012353
0.07435,-0.012353
0.0742,-0.012355
0.07405,-0.012332
0.0739,-0.012364
0.07375,-0.012335
0.0736,-0.012355
0.07345,-0.012338
0.0733,-0.01237
0.07315,-0.012355
0.073,-0.012318
0.07285,-0.012327
0.0727,-0.012286
0.07255,-0.012312
0.0724,-0.012335
0.07225,-0.012318
0.0721,-0.012347
0.07195,-0.012361
0.0718,-0.012361
0.07165,-0.012321
0.0715,-0.012338
0.07135,-0.012358
0.0712,-0.012358
0.07105,-0.012324
0.0709,-0.01233
0.07075,-0.01235
0.0706,-0.012332
0.07045,-0.012376
0.0703,-0.01235
0.07015,-0.012347
0.07,-0.012344
0.06985,-0.012361
0.0697,-0.012413
0.06955,-0.012396
0.0694,-0.012384
0.06925,-0.012376
0.0691,-0.01233
0.06895,-0.012353
0.0688,-0.012358
0.06865,-0.012341
0.0685,-0.012376
0.06835,-0.012347
0.0682,-0.01233
0.06805,-0.012358
0.0679,-0.012384
0.06775,-0.012387
0.0676,-0.012373
0.06745,-0.012358
0.0673,-0.012347
0.06715,-0.012358
0.067,-0.012376
0.06685,-0.012401
0.0667,-0.012367
0.06655,-0.012344
0.0664,-0.012396
0.06625,-0.01241
0.0661,-0.012401
0.06595,-0.012399
0.0658,-0.012353
0.06565,-0.01235
0.0655,-0.012344
0.06535,-0.012332
0.0652,-0.012358
0.06505,-0.01239
0.0649,-0.012361
0.06475,-0.012353
0.0646,-0.012384
0.06445,-0.012378
0.0643,-0.012404
0.06415,-0.012396
0.064,-0.012376
0.06385,-0.012404
0.0637,-0.012384
0.06355,-0.012393
0.0634,-0.012373
0.06325,-0.012381
0.0631,-0.012401
0.06295,-0.012387
0.0628,-0.012393
0.06265,-0.012396
0.0625,-0.01241
0.06235,-0.01241
0.0622,-0.012413
0.06205,-0.012353
0.0619,-0.012358
0.06175,-0.012327
0.0616,-0.01237
0.06145,-0.012384
0.0613,-0.012401
0.06115,-0.012404
0.061,-0.012404
0.06085,-0.012401
0.0607,-0.012404
0.06055,-0.012427
0.0604,-0.01241
0.06025,-0.012419
0.0601,-0.012407
0.05995,-0.012404
0.0598,-0.012364
0.05965,-0.012384
0.0595,-0.012347
0.05935,-0.01239
0.0592,-0.01239
0.05905,-0.012376
0.0589,-0.012393
0.05875,-0.012407
0.0586,-0.012422
0.05845,-0.012427
0.0583,-0.012439
0.05815,-0.012442
0.058,-0.012381
0.05785,-0.012367
0.0577,-0.01243
0.05755,-0.012462
0.0574,-0.01243
0.05725,-0.012413
0.0571,-0.01241
0.05695,-0.012407
0.0568,-0.01239
0.05665,-0.012424
0.0565,-0.012445
0.05635,-0.012442
0.0562,-0.012439
0.05605,-0.01243
0.0559,-0.012416
0.05575,-0.012404
0.0556,-0.012396
0.05545,-0.012399
0.0553,-0.012381
0.05515,-0.012416
0.055,-0.012436
0.05485,-0.012407
0.0547,-0.01241
0.05455,-0.012384
0.0544,-0.012384
0.05425,-0.012439
0.0541,-0.01243
0.05395,-0.012424
0.0538,-0.013106
0.05365,-0.01449
0.0535,-0.014675
0.05335,-0.014764
0.0532,-0.014841
0.05305,-0.014959
0.0529,-0.014994
0.05275,-0.015052
0.0526,-0.01508
0.05245,-0.015129
0.0523,-0.015149
0.05215,-0.015178
0.052,-0.015178
0.05185,-0.015216
0.0517,-0.015236
0.05155,-0.01525
0.0514,-0.015244
0.05125,-0.015302
0.0511,-0.015328
0.05095,-0.015333
0.0508,-0.015365
0.05065,-0.015359
0.0505,-0.01538
0.05035,-0.015417
0.0502,-0.0154
0.05005,-0.015414
0.0499,-0.015397
0.04975,-0.0154
0.0496,-0.01542
0.04945,-0.0154
0.0493,-0.015382
0.04915,-0.015359
0.049,-0.015377
0.04885,-0.015405
0.0487,-0.015374
0.04855,-0.015374
0.0484,-0.015368
0.04825,-0.015362
0.0481,-0.01542
0.04795,-0.015408
0.0478,-0.015339
0.04765,-0.015357
0.0475,-0.015351
0.04735,-0.015305
0.0472,-0.015305
0.04705,-0.015282
0.0469,-0.015273
0.04675,-0.015264
0.0466,-0.015227
0.04645,-0.01521
0.0463,-0.015184
0.04615,-0.015216
0.046,-0.015152
0.04585,-0.015141
0.0457,-0.015132
0.04555,-0.015112
0.0454,-0.015077
0.04525,-0.015069
0.0451,-0.015052
0.04495,-0.01502
0.0448,-0.015031
0.04465,-0.015
0.0445,-0.014994
0.04435,-0.015
0.0442,-0.014962
0.04405,-0.014934
0.0439,-0.014939
0.04375,-0.014867
0.0436,-0.01485
0.04345,-0.014818
0.0433,-0.014841
0.04315,-0.014818
0.043,-0.014735
0.04285,-0.014738
0.0427,-0.014695
0.04255,-0.014643
0.0424,-0.01464
0.04225,-0.014643
0.0421,-0.014608
0.04195,-0.0146
0.0418,-0.014554
0.04165,-0.014554
0.0415,-0.014502
0.04135,-0.01447
0.0412,-0.014433
0.04105,-0.014444
0.0409,-0.014372
0.04075,-0.014347
0.0406,-0.014309
0.04045,-0.014263
0.0403,-0.014257
0.04015,-0.014234
0.04,-0.014177
0.03985,-0.014145
0.0397,-0.014093
0.03955,-0.014082
0.0394,-0.014039
0.03925,-0.013984
0.0391,-0.013978
0.03895,-0.013955
0.0388,-0.013901
0.03865,-0.013909
0.0385,-0.013863
0.03835,-0.013806
0.0382,-0.01376
0.03805,-0.013762
0.0379,-0.013691
0.03775,-0.013644
0.0376,-0.013639
0.03745,-0.01363
0.0373,-0.013561
0.03715,-0.013547
0.037,-0.013489
0.03685,-0.013469
0.0367,-0.013446
0.03655,-0.013417
0.0364,-0.013368
0.03625,-0.013325
0.0361,-0.013296
0.03595,-0.013305
0.0358,-0.013259
0.03565,-0.013178
0.0355,-0.013132
0.03535,-0.013098
0.0352,-0.013034
0.03505,-0.013017
0.0349,-0.013017
0.03475,-0.01287
0.0346,-0.012845
0.03445,-0.012845
0.0343,-0.01281
0.03415,-0.012738
0.034,-0.012732
0.03385,-0.01275
0.0337,-0.012715
0.03355,-0.012614
0.0334,-0.012603
0.03325,-0.01264
0.0331,-0.012545
0.03295,-0.012479
0.0328,-0.012413
0.03265,-0.01237
0.0325,-0.012364
0.03235,-0.012376
0.0322,-0.012295
0.03205,-0.012249
0.0319,-0.012249
0.03175,-0.012148
0.0316,-0.012148
0.03145,-0.012091
0.0313,-0.012065
0.03115,-0.012068
0.031,-0.012073
0.03085,-0.011947
0.0307,-0.011884
0.03055,-0.011832
0.0304,-0.01176
0.03025,-0.011745
0.0301,-0.011702
0.02995,-0.011694
0.0298,-0.011613
0.02965,-0.011573
0.0295,-0.011512
0.02935,-0.011584
0.0292,-0.011576
0.02905,-0.01153
0.0289,-0.011461
0.02875,-0.011423
0.0286,-0.01142
0.02845,-0.011391
0.0283,-0.011311
0.02815,-0.011285
0.028,-0.011262
0.02785,-0.011265
0.0277,-0.011225
0.02755,-0.011153
0.0274,-0.011066
0.02725,-0.011032
0.0271,-0.011026
0.02695,-0.011043
0.0268,-0.010977
0.02665,-0.01092
0.0265,-0.010925
0.02635,-0.010897
0.0262,-0.010853
0.02605,-0.010787
0.0259,-0.010753
0.02575,-0.010684
0.0256,-0.010638
0.02545,-0.010557
0.0253,-0.010537
0.02515,-0.010523
0.025,-0.010479
0.02485,-0.010448
0.0247,-0.010419
0.02455,-0.010359
0.0244,-0.010336
0.02425,-0.010223
0.0241,-0.0102
0.02395,-0.010212
0.0238,-0.0102
0.02365,-0.010203
0.0235,-0.010203
0.02335,-0.010105
0.0232,-0.010148
0.02305,-0.010091
0.0229,-0.010045
0.02275,-0.0099787
0.0226,-0.0099499
0.02245,-0.0099125
0.0223,-0.0098924
0.02215,-0.0099327
0.022,-0.0098377
0.02185,-0.0098348
0.0217,-0.0098233
0.02155,-0.0097715
0.0214,-0.0097169
0.02125,-0.0097054
0.0211,-0.009619
0.02095,-0.0096421
0.0208,-0.0095903
0.02065,-0.0095989
0.0205,-0.00955
0.02035,-0.0095903
0.0202,-0.0095155
0.02005,-0.0094867
0.0199,-0.0094004
0.01975,-0.0094061
0.0196,-0.009386
0.01945,-0.009291
0.0193,-0.0093169
0.01915,-0.0092766
0.019,-0.0092536
0.01885,-0.0092479
0.0187,-0.0091673
0.01855,-0.0091615
0.0184,-0.0090608
0.01825,-0.0090119
0.0181,-0.0089659
0.01795,-0.0089774
0.0178,-0.0089975
0.01765,-0.0089371
0.0175,-0.0088911
0.01735,-0.0089256
0.0172,-0.00894
0.01705,-0.0089227
0.0169,-0.0088652
0.01675,-0.0088767
0.0166,-0.008776
0.01645,-0.0087529
0.0163,-0.0086753
0.01615,-0.0086695
0.016,-0.0086263
0.01585,-0.0085314
0.0157,-0.0085487
0.01555,-0.0085113
0.0154,-0.0084681
0.01525,-0.0084422
0.0151,-0.0083904
0.01495,-0.0082926
0.0148,-0.0082552
0.01465,-0.0082235
0.0145,-0.0081919
0.01435,-0.0081545
0.0142,-0.0081458
0.01405,-0.0080768
0.0139,-0.0080279
0.01375,-0.0079962
0.0136,-0.0079444
0.01345,-0.0079156
0.0133,-0.0079415
0.01315,-0.0079128
0.013,-0.0078638
0.01285,-0.0078121
0.0127,-0.0078322
0.01255,-0.0078063
0.0124,-0.0077229
0.01225,-0.0077056
0.0121,-0.0076682
0.01195,-0.0075905
0.0118,-0.0075301
0.01165,-0.0075272
0.0115,-0.0074754
0.01135,-0.0074351
0.0112,-0.0074006
0.01105,-0.0073661
0.0109,-0.0074294
0.01075,-0.0073143
0.0106,-0.0072625
0.01045,-0.0072538
0.0103,-0.0072481
0.01015,-0.0072107
0.01,-0.0072251
0.00985,-0.0071762
0.0097,-0.0071445
0.00955,-0.0071071
0.0094,-0.006992
0.00925,-0.0068913
0.0091,-0.0068712
0.00895,-0.0068539
0.0088,-0.0067877
0.00865,-0.0067704
0.0085,-0.0067388
0.00835,-0.0067417
0.0082,-0.0066381
0.00805,-0.0065748
0.0079,-0.0064913
0.00775,-0.0063791
0.0076,-0.0062899
0.00745,-0.0062813
0.0073,-0.0061547
0.00715,-0.0060569
0.007,-0.0060137
0.00685,-0.0059907
0.0067,-0.0058238
0.00655,-0.0057519
0.0064,-0.0056742
0.00625,-0.0056166
0.0061,-0.0053692
0.00595,-0.005326
0.0058,-0.0051275
0.00565,-0.0050095
0.0055,-0.0049404
0.00535,-0.004857
0.0052,-0.0046901
0.00505,-0.0045923
0.0049,-0.0044398
0.00475,-0.0042786
0.0046,-0.0042873
0.00445,-0.0041146
0.0043,-0.0039046
0.00415,-0.0038154
0.004,-0.0037233
0.00385,-0.0035449
0.0037,-0.0034413
0.00355,-0.0032773
0.0034,-0.0031162
0.00325,-0.0029694
0.0031,-0.0029435
0.00295,-0.0028169
0.0028,-0.0027047
0.00265,-0.0025522
0.0025,-0.0025091
0.00235,-0.0024084
0.0022,-0.0023623
0.00205,-0.0022645
0.0019,-0.0021609
0.00175,-0.0020458
0.0016,-0.0019336
0.00145,-0.0017984
0.0013,-0.0016631
0.00115,-0.001571
0.001,-0.0013926
0.00085,-0.0012574
0.0007,-0.0011538
0.00055,-0.00090925
0.0004,-0.00086033
0.00025,-0.00067043
0.0001,-0.00061576
-5e-05,-0.00059274
-0.0002,-0.00048052
-0.00035,-0.00041146
-0.0005,-0.00015538
-0.00065,-4.8915e-05
-0.0008,1.4387e-05
-0.00095,0.00015826
-0.0011,0.00040283
-0.00125,0.00054958
-0.0014,0.00062151
-0.00155,0.00081142
-0.0017,0.00099845
-0.00185,0.0011107
-0.002,0.0012315
-0.00215,0.0013667
-0.0023,0.0015365
-0.00245,0.0017379
-0.0026,0.0019192
-0.00275,0.0021177
-0.0029,0.0022156
-0.00305,0.0022271
-0.0032,0.002394
-0.00335,0.0026069
-0.0035,0.0026846
-0.00365,0.002886
-0.0038,0.0030385
-0.00395,0.0031824
-0.0041,0.0032831
-0.00425,0.0034126
-0.0044,0.0035708
-0.00455,0.0037435
-0.0047,0.003965
-0.00485,0.0040082
-0.005,0.0041866
-0.005,0.0041664
-0.00485,0.0040974
-0.0047,0.0039017
-0.00455,0.0036859
-0.0044,0.0035852
-0.00425,0.0034528
-0.0041,0.0032572
-0.00395,0.0030558
-0.0038,0.0028141
-0.00365,0.0026328
-0.0035,0.0025177
-0.00335,0.0023508
-0.0032,0.0021753
-0.00305,0.0020429
-0.0029,0.0018818
-0.00275,0.0016602
-0.0026,0.0014703
-0.00245,0.0012891
-0.0023,0.001174
-0.00215,0.0009409
-0.002,0.00075099
-0.00185,0.00058123
-0.0017,0.00049203
-0.00155,0.00029061
-0.0014,0.00010359
-0.00125,2.0142e-05
-0.0011,-0.00024745
-0.00095,-0.00039995
-0.0008,-0.00063014
-0.00065,-0.00069345
-0.0005,-0.00087472
-0.00035,-0.0010905
-0.0002,-0.001243
-5e-05,-0.0014588
0.0001,-0.0015998
0.00025,-0.0017322
0.0004,-0.0019365
0.00055,-0.0020228
0.0007,-0.0022271
0.00085,-0.0024544
0.001,-0.0025465
0.00115,-0.0026529
0.0013,-0.0028946
0.00145,-0.0030299
0.0016,-0.003168
0.00175,-0.0033838
0.0019,-0.0034845
0.00205,-0.0036917
0.0022,-0.0038557
0.00235,-0.0039794
0.0025,-0.0042556
0.00265,-0.0044599
0.0028,-0.0045405
0.00295,-0.0046786
0.0031,-0.0048426
0.00325,-0.005067
0.0034,-0.0051678
0.00355,-0.0054008
0.0037,-0.0055418
0.00385,-0.0057001
0.004,-0.0057576
0.00415,-0.0060137
0.0043,-0.0062036
0.00445,-0.0063187
0.0046,-0.006405
0.00475,-0.0066295
0.0049,-0.0068395
0.00505,-0.0069287
0.0052,-0.0071445
0.00535,-0.0071877
0.0055,-0.0073056
0.00565,-0.0074437
0.0058,-0.0076279
0.00595,-0.0078178
0.0061,-0.0079185
0.00625,-0.0080825
0.0064,-0.0082062
0.00655,-0.0084019
0.0067,-0.0085343
0.00685,-0.0086724
0.007,-0.0088076
0.00715,-0.0089342
0.0073,-0.0090493
0.00745,-0.0091615
0.0076,-0.0093227
0.00775,-0.0093342
0.0079,-0.0093975
0.00805,-0.0095039
0.0082,-0.0096162
0.00835,-0.0096996
0.0085,-0.0098492
0.00865,-0.0098924
0.0088,-0.0099758
0.00895,-0.0099672
0.0091,-0.0099873
0.00925,-0.010071
0.0094,-0.010016
0.00955,-0.010045
0.0097,-0.010114
0.00985,-0.010223
0.01,-0.010223
0.01015,-0.010252
0.0103,-0.010287
0.01045,-0.010249
0.0106,-0.010321
0.01075,-0.01035
0.0109,-0.010422
0.01105,-0.010479
0.0112,-0.010459
0.01135,-0.010623
0.0115,-0.0106
0.01165,-0.010583
0.0118,-0.010672
0.01195,-0.010735
0.0121,-0.010698
0.01225,-0.010758
0.0124,-0.010805
0.01255,-0.010822
0.0127,-0.010848
0.01285,-0.010853
0.013,-0.010853
0.01315,-0.010917
0.0133,-0.010902
0.01345,-0.01092
0.0136,-0.010974
0.01375,-0.010943
0.0139,-0.010974
0.01405,-0.01102
0.0142,-0.011081
0.01435,-0.011089
0.0145,-0.01113
0.01465,-0.011089
0.0148,-0.011164
0.01495,-0.011213
0.0151,-0.011213
0.01525,-0.011207
0.0154,-0.011274
0.01555,-0.01132
0.0157,-0.011308
0.01585,-0.011317
0.016,-0.011391
0.01615,-0.011394
0.0163,-0.011403
0.01645,-0.011426
0.0166,-0.011432
0.01675,-0.011449
0.0169,-0.011489
0.01705,-0.011532
0.0172,-0.011616
0.01735,-0.011602
0.0175,-0.011668
0.01765,-0.011653
0.0178,-0.011702
0.01795,-0.011714
0.0181,-0.011745
0.01825,-0.011708
0.0184,-0.011743
0.01855,-0.011774
0.0187,-0.011835
0.01885,-0.011817
0.019,-0.011812
0.01915,-0.011884
0.0193,-0.011849
0.01945,-0.011878
0.0196,-0.011961
0.01975,-0.011924
0.0199,-0.011915
0.02005,-0.011973
0.0202,-0.011953
0.02035,-0.01201
0.0205,-0.012033
0.02065,-0.012079
0.0208,-0.012045
0.02095,-0.012007
0.0211,-0.012102
0.02125,-0.012085
0.0214,-0.012033
0.02155,-0.012174
0.0217,-0.012183
0.02185,-0.012189
0.022,-0.012249
0.02215,-0.01224
0.0223,-0.012246
0.02245,-0.012286
0.0226,-0.01226
0.02275,-0.012286
0.0229,-0.012321
0.02305,-0.012353
0.0232,-0.012436
0.02335,-0.012456
0.0235,-0.012511
0.02365,-0.01254
0.0238,-0.012476
0.02395,-0.012491
0.0241,-0.012577
0.02425,-0.012548
0.0244,-0.012537
0.02455,-0.012586
0.0247,-0.012695
0.02485,-0.012701
0.025,-0.012752
0.02515,-0.012764
0.0253,-0.012801
0.02545,-0.012845
0.0256,-0.012819
0.02575,-0.01283
0.0259,-0.012776
0.02605,-0.01285
0.0262,-0.012905
0.02635,-0.01296
0.0265,-0.012988
0.02665,-0.012991
0.0268,-0.013034
0.02695,-0.013009
0.0271,-0.013023
0.02725,-0.013034
0.0274,-0.013057
0.02755,-0.013132
0.0277,-0.013164
0.02785,-0.01319
0.028,-0.013178
0.02815,-0.013201
0.0283,-0.013293
0.02845,-0.013288
0.0286,-0.013233
0.02875,-0.013337
0.0289,-0.013337
0.02905,-0.013296
0.0292,-0.013325
0.02935,-0.013362
0.0295,-0.013368
0.02965,-0.013383
0.0298,-0.013423
0.02995,-0.013457
0.0301,-0.013501
0.03025,-0.013503
0.0304,-0.01357
0.03055,-0.013587
0.0307,-0.01359
0.03085,-0.013555
0.031,-0.013561
0.03115,-0.01359
0.0313,-0.013642
0.03145,-0.013647
0.0316,-0.013662
0.03175,-0.013685
0.0319,-0.013745
0.03205,-0.0138
0.0322,-0.013806
0.03235,-0.013785
0.0325,-0.013837
0.03265,-0.013823
0.0328,-0.013849
0.03295,-0.01388
0.0331,-0.013926
0.03325,-0.013932
0.0334,-0.013967
0.03355,-0.014053
0.0337,-0.014027
0.03385,-0.014067
0.034,-0.014111
0.03415,-0.014148
0.0343,-0.014206
0.03445,-0.014211
0.0346,-0.014234
0.03475,-0.014254
0.0349,-0.01428
0.03505,-0.014321
0.0352,-0.014352
0.03535,-0.014355
0.0355,-0.01439
0.03565,-0.014427
0.0358,-0.014436
0.03595,-0.014453
0.0361,-0.014482
0.03625,-0.014499
0.0364,-0.014525
0.03655,-0.014539
0.0367,-0.014571
0.03685,-0.014585
0.037,-0.014606
0.03715,-0.014626
0.0373,-0.014652
0.03745,-0.014721
0.0376,-0.014749
0.03775,-0.014778
0.0379,-0.014775
0.03805,-0.014813
0.0382,-0.014847
0.03835,-0.014876
0.0385,-0.014905
0.03865,-0.014939
0.0388,-0.014919
0.03895,-0.014942
0.0391,-0.014971
0.03925,-0.014968
0.0394,-0.014974
0.03955,-0.014985
0.0397,-0.015034
0.03985,-0.015069
0.04,-0.01508
0.04015,-0.015083
0.0403,-0.015066
0.04045,-0.015118
0.0406,-0.015164
0.04075,-0.015181
0.0409,-0.015224
0.04105,-0.015218
0.0412,-0.015299
0.04135,-0.01529
0.0415,-0.015322
0.04165,-0.015305
0.0418,-0.015299
0.04195,-0.015328
0.0421,-0.015368
0.04225,-0.015368
0.0424,-0.015423
0.04255,-0.015377
0.0427,-0.015414
0.04285,-0.015428
0.043,-0.015434
0.04315,-0.015463
0.0433,-0.015497
0.04345,-0.015483
0.0436,-0.015541
0.04375,-0.015592
0.0439,-0.015549
0.04405,-0.015581
0.0442,-0.015561
0.04435,-0.015561
0.0445,-0.015541
0.04465,-0.015567
0.0448,-0.015564
0.04495,-0.01561
0.0451,-0.015615
0.04525,-0.015598
0.0454,-0.015641
0.04555,-0.01567
0.0457,-0.01565
0.04585,-0.015693
0.046,-0.015679
0.04615,-0.015696
0.0463,-0.015673
0.04645,-0.015708
0.0466,-0.015702
0.04675,-0.015748
0.0469,-0.015745
0.04705,-0.015742
0.0472,-0.015739
0.04735,-0.015791
0.0475,-0.015742
0.04765,-0.015777
0.0478,-0.015779
0.04795,-0.015768
0.0481,-0.015774
0.04825,-0.015739
0.0484,-0.015754
0.04855,-0.015765
0.0487,-0.015751
0.04885,-0.015768
0.049,-0.015745
0.04915,-0.015742
0.0493,-0.015756
0.04945,-0.015759
0.0496,-0.015722
0.04975,-0.015716
0.0499,-0.015687
0.05005,-0.015673
0.0502,-0.01567
0.05035,-0.015687
0.0505,-0.015673
0.05065,-0.015687
0.0508,-0.015653
0.05095,-0.015633
0.0511,-0.015638
0.05125,-0.015587
0.0514,-0.015572
0.05155,-0.015578
0.0517,-0.015592
0.05185,-0.015567
0.052,-0.015529
0.05215,-0.015523
0.0523,-0.015523
0.05245,-0.015509
0.0526,-0.0155
0.05275,-0.015451
0.0529,-0.015423
0.05305,-0.015426
0.0532,-0.015434
0.05335,-0.015394
0.0535,-0.015331
0.05365,-0.015293
0.0538,-0.015322
0.05395,-0.015302
0.0541,-0.015276
0.05425,-0.015233
0.0544,-0.015239
0.05455,-0.01519
0.0547,-0.015161
0.05485,-0.015141
0.055,-0.015098
0.05515,-0.015069
0.0553,-0.015026
0.05545,-0.015023
0.0556,-0.014962
0.05575,-0.014934
0.0559,-0.014942
0.05605,-0.014879
0.0562,-0.014887
0.05635,-0.014847
0.0565,-0.014818
0.05665,-0.014827
0.0568,-0.0147
0.05695,-0.014686
0.0571,-0.014689
0.05725,-0.014666
0.0574,-0.014646
0.05755,-0.014559
0.0577,-0.014531
0.05785,-0.014513
0.058,-0.014479
0.05815,-0.014427
0.0583,-0.014393
0.05845,-0.014347
0.0586,-0.014315
0.05875,-0.014272
0.0589,-0.014203
0.05905,-0.014188
0.0592,-0.014211
0.05935,-0.014171
0.0595,-0.014102
0.05965,-0.014085
0.0598,-0.014027
0.05995,-0.014016
0.0601,-0.013998
0.06025,-0.013984
0.0604,-0.013947
0.06055,-0.013886
0.0607,-0.013869
0.06085,-0.013814
0.061,-0.01382
0.06115,-0.0138
0.0613,-0.013762
0.06145,-0.013742
0.0616,-0.013722
0.06175,-0.013699
0.0619,-0.013676
0.06205,-0.013616
0.0622,-0.013535
0.06235,-0.013509
0.0625,-0.013509
0.06265,-0.013512
0.0628,-0.013478
0.06295,-0.01344
0.0631,-0.013411
0.06325,-0.013348
0.0634,-0.013354
0.06355,-0.013302
0.0637,-0.013273
0.06385,-0.013262
0.064,-0.013201
0.06415,-0.013187
0.0643,-0.013147
0.06445,-0.013106
0.0646,-0.013046
0.06475,-0.012971
0.0649,-0.012729
0.06505,-0.01237
0.0652,-0.012399
0.06535,-0.012404
0.0655,-0.01243
0.06565,-0.012407
0.0658,-0.012396
0.06595,-0.01241
0.0661,-0.012427
0.06625,-0.012401
0.0664,-0.012387
0.06655,-0.012378
0.0667,-0.012419
0.06685,-0.012416
0.067,-0.012381
0.06715,-0.012404
0.0673,-0.012387
0.06745,-0.012399
0.0676,-0.012387
0.06775,-0.012358
0.0679,-0.012378
0.06805,-0.012373
0.0682,-0.01237
0.06835,-0.012353
0.0685,-0.012378
0.06865,-0.01237
0.0688,-0.012364
0.06895,-0.012358
0.0691,-0.012347
0.06925,-0.012341
0.0694,-0.012321
0.06955,-0.01233
0.0697,-0.012332
0.06985,-0.012306
0.07,-0.012341
0.07015,-0.012341
0.0703,-0.01237
0.07045,-0.012347
0.0706,-0.012358
0.07075,-0.012341
0.0709,-0.012358
0.07105,-0.012361
0.0712,-0.01237
0.07135,-0.01239
0.0715,-0.012381
0.07165,-0.012387
0.0718,-0.012367
0.07195,-0.01239
0.0721,-0.012364
0.07225,-0.012353
0.0724,-0.012373
0.07255,-0.012396
0.0727,-0.012355
0.07285,-0.012358
0.073,-0.012364
0.07315,-0.012378
0.0733,-0.012361
0.07345,-0.012387
0.0736,-0.012344
0.07375,-0.012381
0.0739,-0.01237
0.07405,-0.012364
0.0742,-0.012367
0.07435,-0.012378
0.0745,-0.012384
0.07465,-0.01237
0.0748,-0.012344
0.07495,-0.012387
0.0751,-0.012384
0.07525,-0.012396
0.0754,-0.012361
0.07555,-0.012347
0.0757,-0.012344
0.07585,-0.012364
0.076,-0.012399
0.07615,-0.012353
0.0763,-0.012384
0.07645,-0.012347
0.0766,-0.012367
0.07675,-0.012338
0.0769,-0.012338
0.07705,-0.012358
0.0772,-0.012376
0.07735,-0.012367
0.0775,-0.012315
0.07765,-0.012304
0.0778,-0.012321
0.07795,-0.012353
0.0781,-0.012361
0.07825,-0.012338
0.0784,-0.012338
0.07855,-0.012341
0.0787,-0.012312
0.07885,-0.012312
0.079,-0.012321
0.07915,-0.012335
0.0793,-0.012312
0.07945,-0.01233
0.0796,-0.012318
0.07975,-0.012315
0.0799,-0.01235
0.08005,-0.012335
0.0802,-0.012338
0.08035,-0.012347
0.0805,-0.012324
0.08065,-0.012327
0.0808,-0.012318
0.08095,-0.012292
0.0811,-0.012292
0.08125,-0.012361
0.0814,-0.012347
0.08155,-0.012341
0.0817,-0.01233
0.08185,-0.012324
0.082,-0.012289
0.08215,-0.012309
0.0823,-0.012304
0.08245,-0.012318
0.0826,-0.012289
0.08275,-0.012289
0.0829,-0.012306
0.08305,-0.012289
0.0832,-0.012286
0.08335,-0.012292
0.0835,-0.012332
0.08365,-0.012335
0.0838,-0.012332
0.08395,-0.012315
0.0841,-0.012309
0.08425,-0.012324
0.0844,-0.012292
0.08455,-0.012315
0.0847,-0.012335
0.08485,-0.012332
0.085,-0.012301
0.08515,-0.012318
0.0853,-0.012304
0.08545,-0.012301
0.0856,-0.012321
0.08575,-0.012301
0.0859,-0.012283
0.08605,-0.012327
0.0862,-0.012295
0.08635,-0.012292
0.0865,-0.012309
0.08665,-0.012298
0.0868,-0.012289
0.08695,-0.012304
0.0871,-0.012281
0.08725,-0.012304
0.0874,-0.012286
0.08755,-0.012301
0.0877,-0.012304
0.08785,-0.012304
0.088,-0.012324
0.08815,-0.012327
0.0883,-0.012306
0.08845,-0.012295
0.0886,-0.012272
0.08875,-0.012278
0.0889,-0.01224
0.08905,-0.01226
0.0892,-0.012263
0.08935,-0.012263
0.0895,-0.012243
0.08965,-0.01222
0.0898,-0.012269
0.08995,-0.012266
0.0901,-0.012249
0.09025,-0.012246
0.0904,-0.01226
0.09055,-0.012304
0.0907,-0.012315
0.09085,-0.012306
0.091,-0.012295
0.09115,-0.012292
0.0913,-0.012278
0.09145,-0.012275
0.0916,-0.012272
0.09175,-0.012255
0.0919,-0.012258
0.09205,-0.012263
0.0922,-0.012263
0.09235,-0.01226
0.0925,-0.012266
0.09265,-0.012272
0.0928,-0.012295
0.09295,-0.012292
0.0931,-0.012295
0.09325,-0.012292
0.0934,-0.012298
0.09355,-0.012295
0.0937,-0.012298
0.09385,-0.012281
0.094,-0.012309
0.09415,-0.012295
0.0943,-0.012281
0.09445,-0.012304
0.0946,-0.012286
0.09475,-0.012309
0.0949,-0.012315
0.09505,-0.012318
0.0952,-0.012306
0.09535,-0.012292
0.0955,-0.012269
0.09565,-0.012266
0.0958,-0.012269
0.09595,-0.012266
0.0961,-0.012281
0.09625,-0.012278
0.0964,-0.012309
0.09655,-0.012258
0.0967,-0.012298
0.09685,-0.012292
0.097,-0.012278
0.09715,-0.012301
0.0973,-0.012318
0.09745,-0.012263
0.0976,-0.012249
0.09775,-0.012281
0.0979,-0.012258
0.09805,-0.01226
0.0982,-0.012266
0.09835,-0.012252
0.0985,-0.012252
0.09865,-0.012243
0.0988,-0.012278
0.09895,-0.012272
0.0991,-0.012286
0.09925,-0.012269
0.0994,-0.012258
0.09955,-0.012278
0.0997,-0.012286
0.09985,-0.012255
0.1,-0.012266
0.10015,-0.012289
0.1003,-0.012281
0.10045,-0.012272
0.1006,-0.012255
0.10075,-0.012281
0.1009,-0.012252
0.10105,-0.012263
0.1012,-0.012266
0.10135,-0.012255
0.1015,-0.012255
0.10165,-0.012283
0.1018,-0.012263
0.10195,-0.012246
0.1021,-0.012226
0.10225,-0.012258
0.1024,-0.012283
0.10255,-0.012269
0.1027,-0.012272
0.10285,-0.012286
0.103,-0.012281
0.10315,-0.012292
0.1033,-0.012304
0.10345,-0.012292
0.1036,-0.012263
0.10375,-0.01226
0.1039,-0.012292
0.10405,-0.012278
0.1042,-0.012292
0.10435,-0.012243
0.1045,-0.012255
0.10465,-0.012235
0.1048,-0.012252
0.10495,-0.012252
0.1051,-0.01226
0.10525,-0.012252
0.1054,-0.012286
0.10555,-0.012252
0.1057,-0.01224
0.10585,-0.012252
0.106,-0.012283
0.10615,-0.012269
0.1063,-0.012275
0.10645,-0.012258
0.1066,-0.012263
0.10675,-0.012237
0.1069,-0.012235
0.10705,-0.012235
0.1072,-0.012194
0.10735,-0.012194
0.1075,-0.012194
0.10765,-0.01222
0.1078,-0.012203
0.10795,-0.012226
0.1081,-0.012281
0.10825,-0.012243
0.1084,-0.012223
0.10855,-0.012223
0.1087,-0.012206
0.10885,-0.012171
0.109,-0.012203
0.10915,-0.012209
0.1093,-0.012206
0.10945,-0.012206
0.1096,-0.012217
0.10975,-0.012206
0.1099,-0.012177
0.11005,-0.012171
0.1102,-0.01218
0.11035,-0.012194
0.1105,-0.012189
0.11065,-0.012232
0.1108,-0.012223
0.11095,-0.012237
0.1111,-0.01226
0.11125,-0.012237
0.1114,-0.012249
0.11155,-0.012243
0.1117,-0.012249
0.11185,-0.012226
0.112,-0.01222
0.11215,-0.012226
0.1123,-0.012232
0.11245,-0.012212
0.1126,-0.012217
0.11275,-0.012212
0.1129,-0.012243
0.11305,-0.012252
0.1132,-0.012235
0.11335,-0.012255
0.1135,-0.012249
0.11365,-0.012237
0.1138,-0.012206
0.11395,-0.012209
0.1141,-0.012209
0.11425,-0.012217
0.1144,-0.012191
0.11455,-0.012214
0.1147,-0.012214
0.11485,-0.0122
0.115,-0.0122
0.11515,-0.012217
0.1153,-0.01224
0.11545,-0.012177
0.1156,-0.012223
0.11575,-0.012206
0.1159,-0.012209
0.11605,-0.012206
0.1162,-0.012217
0.11635,-0.012232
0.1165,-0.012214
0.11665,-0.012237
0.1168,-0.012237
0.11695,-0.012217
0.1171,-0.012232
0.11725,-0.012206
0.1174,-0.012223
0.11755,-0.012214
0.1177,-0.012235
0.11785,-0.012197
0.118,-0.012203
0.11815,-0.012209
0.1183,-0.012189
0.11845,-0.012191
0.1186,-0.01222
0.11875,-0.012223
0.1189,-0.012214
0.11905,-0.012223
0.1192,-0.012217
0.11935,-0.012183
0.1195,-0.0122
0.11965,-0.012275
0.1198,-0.012243
0.11995,-0.01224
0.1201,-0.012269
0.12025,-0.01226
0.1204,-0.012212
0.12055,-0.012212
0.1207,-0.0122
0.12085,-0.012171
0.121,-0.012168
0.12115,-0.01216
0.1213,-0.012186
0.12145,-0.012177
0.1216,-0.012197
0.12175,-0.012191
0.1219,-0.012166
0.12205,-0.012186
0.1222,-0.012249
0.12235,-0.012237
0.1225,-0.012212
0.12265,-0.012197
0.1228,-0.0122
0.12295,-0.0122
0.1231,-0.012206
0.12325,-0.012255
0.1234,-0.012232
0.12355,-0.01224
0.1237,-0.012272
0.12385,-0.012243
0.124,-0.01222
0.12415,-0.012217
0.1243,-0.012258
0.12445,-0.012214
0.1246,-0.012212
0.12475,-0.012206
0.1249,-0.012183
0.12505,-0.012171
0.1252,-0.012168
0.12535,-0.012186
0.1255,-0.012177
0.12565,-0.012183
0.1258,-0.012209
0.12595,-0.012191
0.1261,-0.012197
0.12625,-0.012214
0.1264,-0.012168
0.12655,-0.01218
0.1267,-0.012206
0.12685,-0.01218
0.127,-0.012214
0.12715,-0.012223
0.1273,-0.012223
0.12745,-0.012237
0.1276,-0.012252
0.12775,-0.012237
0.1279,-0.012209
0.12805,-0.012209
0.1282,-0.012206
0.12835,-0.0122
0.1285,-0.012214
0.12865,-0.012226
0.1288,-0.012226
0.12895,-0.012209
0.1291,-0.012212
0.12925,-0.012237
0.1294,-0.012243
0.12955,-0.012203
0.1297,-0.012197
0.12985,-0.012203
0.13,-0.012197
0.13015,-0.012217
0.1303,-0.01218
0.13045,-0.0122
0.1306,-0.012194
0.13075,-0.012194
0.1309,-0.012217
0.13105,-0.012177
0.1312,-0.01218
0.13135,-0.012197
0.1315,-0.0122
0.13165,-0.012203
0.1318,-0.012212
0.13195,-0.012186
0.1321,-0.012214
0.13225,-0.012203
0.1324,-0.012209
0.13255,-0.012217
0.1327,-0.01222
0.13285,-0.012209
0.133,-0.01222
0.13315,-0.01222
0.1333,-0.012183
0.13345,-0.012163
0.1336,-0.01216
0.13375,-0.012194
0.1339,-0.012194
0.13405,-0.012217
0.1342,-0.012214
0.13435,-0.012235
0.1345,-0.012197
0.13465,-0.012183
0.1348,-0.012177
0.13495,-0.012168
0.1351,-0.01216
0.13525,-0.012157
0.1354,-0.01214
0.13555,-0.012154
0.1357,-0.012131
0.13585,-0.012145
0.136,-0.012142
0.13615,-0.012134
0.1363,-0.012148
0.13645,-0.012148
0.1366,-0.012117
0.13675,-0.012151
0.1369,-0.012148
0.13705,-0.012142
0.1372,-0.012183
0.13735,-0.012174
0.1375,-0.012206
0.13765,-0.012189
0.1378,-0.012177
0.13795,-0.012183
0.1381,-0.012183
0.13825,-0.012168
0.1384,-0.012171
0.13855,-0.01216
0.1387,-0.012137
0.13885,-0.012145
0.139,-0.012128
0.13915,-0.012163
0.1393,-0.012171
0.13945,-0.012142
0.1396,-0.012209
0.13975,-0.012183
0.1399,-0.012145
0.14005,-0.012137
0.1402,-0.0122
0.14035,-0.012171
0.1405,-0.012157
0.14065,-0.012197
0.1408,-0.012189
0.14095,-0.012194
0.1411,-0.01224
0.14125,-0.01222
0.1414,-0.0122
0.14155,-0.0122
0.1417,-0.012189
0.14185,-0.0122
0.142,-0.012171
0.14215,-0.012154
0.1423,-0.012166
0.14245,-0.012166
0.1426,-0.012151
0.14275,-0.012148
0.1429,-0.012197
0.14305,-0.012223
0.1432,-0.012174
0.14335,-0.012183
0.1435,-0.012142
0.14365,-0.012168
0.1438,-0.012168
0.14395,-0.012191
0.1441,-0.012163
0.14425,-0.012157
0.1444,-0.012119
0.14455,-0.012142
0.1447,-0.012148
0.14485,-0.012163
0.145,-0.012166
